#R dependence of screened Coulomb at omega=calc_ifreq
#1:R [AA], 2:Re[W(R)] [eV], 3:Im[W(R)] [eV]
    20.57828     0.04766     0.00178
    20.57828     0.04720     0.00179
    20.57828     0.04720     0.00179
    20.57828     0.04653     0.00182
    20.57828     0.04652     0.00182
    25.71231     0.04565     0.00190
    25.71231     0.04527     0.00191
    25.71231     0.04527     0.00191
    25.71231     0.04477     0.00193
    25.71231     0.04474     0.00193
    31.51006     0.07321     0.00142
    31.51006     0.07313     0.00141
    31.51006     0.07313     0.00141
    31.51006     0.07335     0.00141
    31.51006     0.07331     0.00142
    37.66628     0.11585     0.00077
    37.66628     0.11650     0.00075
    37.66628     0.11650     0.00075
    37.66628     0.11867     0.00074
    37.66628     0.11894     0.00076
    44.03086     0.14380     0.00038
    44.03086     0.14518     0.00036
    44.03086     0.14518     0.00036
    44.03086     0.14887     0.00032
    44.03086     0.14870     0.00032
    50.52512     0.12430     0.00033
    50.52512     0.12488     0.00032
    50.52512     0.12488     0.00032
    50.52512     0.12645     0.00027
    50.52512     0.12614     0.00026
    57.10484     0.07991     0.00104
    57.10484     0.07965     0.00104
    57.10484     0.07965     0.00104
    57.10484     0.07938     0.00105
    57.10484     0.07929     0.00105
    15.29900     0.08565     0.00075
    15.29900     0.08488     0.00077
    15.29900     0.08550     0.00075
    15.29900     0.08455     0.00079
    15.29900     0.08459     0.00080
    19.82164     0.04878     0.00172
    19.82164     0.04823     0.00174
    19.82164     0.04830     0.00173
    19.82164     0.04747     0.00177
    19.82164     0.04750     0.00177
    25.41336     0.04542     0.00192
    25.41336     0.04502     0.00193
    25.41336     0.04502     0.00193
    25.41336     0.04455     0.00195
    25.41336     0.04456     0.00195
    31.51006     0.07321     0.00142
    31.51006     0.07313     0.00141
    31.51006     0.07313     0.00141
    31.51006     0.07335     0.00141
    31.51006     0.07331     0.00142
    37.86862     0.11920     0.00057
    37.86862     0.11958     0.00056
    37.86862     0.12000     0.00055
    37.86862     0.12149     0.00051
    37.86862     0.12118     0.00050
    44.37662     0.15792    -0.00013
    44.37662     0.15866    -0.00014
    44.37662     0.16047    -0.00017
    44.37662     0.16402    -0.00023
    44.37662     0.16396    -0.00024
    50.97686     0.13771    -0.00025
    50.97686     0.13742    -0.00025
    50.97686     0.13904    -0.00029
    50.97686     0.13969    -0.00031
    50.97686     0.13951    -0.00031
    11.77949     0.15230    -0.00073
    11.77949     0.15015    -0.00072
    11.77949     0.15495    -0.00078
    11.77949     0.15374    -0.00080
    11.77949     0.15334    -0.00078
    14.79105     0.08847     0.00062
    14.79105     0.08739     0.00065
    14.79105     0.08841     0.00062
    14.79105     0.08700     0.00067
    14.79105     0.08706     0.00068
    19.82164     0.04878     0.00172
    19.82164     0.04823     0.00174
    19.82164     0.04830     0.00173
    19.82164     0.04747     0.00177
    19.82164     0.04750     0.00177
    25.71231     0.04565     0.00190
    25.71231     0.04527     0.00191
    25.71231     0.04527     0.00191
    25.71231     0.04477     0.00193
    25.71231     0.04474     0.00193
    31.99144     0.07589     0.00125
    31.99144     0.07561     0.00126
    31.99144     0.07588     0.00124
    31.99144     0.07575     0.00125
    31.99144     0.07561     0.00124
    38.46927     0.12940     0.00014
    38.46927     0.12896     0.00015
    38.46927     0.13090     0.00010
    38.46927     0.13157     0.00007
    38.46927     0.13118     0.00006
    45.06019     0.18083    -0.00079
    45.06019     0.17984    -0.00078
    45.06019     0.18593    -0.00087
    45.06019     0.18881    -0.00094
    45.06019     0.18816    -0.00094
    11.72847     0.20270    -0.00083
    11.72847     0.19698    -0.00096
    11.72847     0.21312    -0.00078
    11.72847     0.21430    -0.00105
    11.72847     0.21122    -0.00106
    11.77949     0.15230    -0.00073
    11.77949     0.15015    -0.00072
    11.77949     0.15495    -0.00078
    11.77949     0.15374    -0.00080
    11.77949     0.15334    -0.00078
    15.29899     0.08565     0.00075
    15.29899     0.08488     0.00077
    15.29899     0.08550     0.00075
    15.29899     0.08455     0.00079
    15.29899     0.08459     0.00080
    20.57828     0.04766     0.00178
    20.57828     0.04720     0.00179
    20.57828     0.04720     0.00179
    20.57828     0.04653     0.00182
    20.57828     0.04652     0.00182
    26.58901     0.04645     0.00185
    26.58901     0.04597     0.00186
    26.58901     0.04606     0.00186
    26.58901     0.04540     0.00188
    26.58901     0.04534     0.00188
    32.93309     0.07996     0.00106
    32.93309     0.07925     0.00107
    32.93309     0.08017     0.00105
    32.93309     0.07952     0.00106
    32.93309     0.07941     0.00106
    39.45003     0.14031    -0.00015
    39.45003     0.13853    -0.00016
    39.45003     0.14296    -0.00020
    39.45003     0.14233    -0.00025
    39.45003     0.14181    -0.00025
    15.18094     0.14031    -0.00015
    15.18094     0.13853    -0.00016
    15.18094     0.14296    -0.00020
    15.18094     0.14233    -0.00025
    15.18094     0.14181    -0.00025
    12.36289     0.18083    -0.00079
    12.36289     0.17984    -0.00078
    12.36289     0.18593    -0.00087
    12.36289     0.18881    -0.00094
    12.36289     0.18816    -0.00094
    13.01248     0.13771    -0.00025
    13.01248     0.13742    -0.00025
    13.01248     0.13904    -0.00029
    13.01248     0.13969    -0.00031
    13.01248     0.13951    -0.00031
    16.73056     0.07991     0.00104
    16.73056     0.07965     0.00104
    16.73056     0.07965     0.00104
    16.73056     0.07938     0.00105
    16.73056     0.07929     0.00105
    22.01368     0.04645     0.00185
    22.01368     0.04606     0.00186
    22.01368     0.04597     0.00186
    22.01368     0.04540     0.00188
    22.01368     0.04534     0.00188
    27.98921     0.04725     0.00181
    27.98921     0.04669     0.00183
    27.98921     0.04688     0.00182
    27.98921     0.04616     0.00185
    27.98921     0.04616     0.00185
    34.29713     0.08204     0.00098
    34.29713     0.08107     0.00099
    34.29713     0.08240     0.00097
    34.29713     0.08143     0.00099
    34.29713     0.08135     0.00099
    20.43204     0.07996     0.00106
    20.43204     0.07925     0.00107
    20.43204     0.08017     0.00105
    20.43204     0.07952     0.00106
    20.43204     0.07941     0.00106
    16.15640     0.12940     0.00014
    16.15640     0.12896     0.00015
    16.15640     0.13090     0.00010
    16.15640     0.13157     0.00007
    16.15640     0.13118     0.00006
    14.09586     0.15792    -0.00013
    14.09586     0.15866    -0.00014
    14.09586     0.16047    -0.00017
    14.09586     0.16402    -0.00023
    14.09586     0.16396    -0.00024
    15.18094     0.12430     0.00033
    15.18094     0.12488     0.00032
    15.18094     0.12488     0.00032
    15.18094     0.12645     0.00027
    15.18094     0.12614     0.00026
    18.87676     0.07589     0.00125
    18.87676     0.07588     0.00124
    18.87676     0.07561     0.00126
    18.87676     0.07575     0.00125
    18.87676     0.07561     0.00124
    24.00639     0.04598     0.00188
    24.00639     0.04565     0.00189
    24.00639     0.04554     0.00189
    24.00639     0.04505     0.00191
    24.00639     0.04501     0.00191
    29.83931     0.04725     0.00181
    29.83931     0.04669     0.00183
    29.83931     0.04688     0.00182
    29.83931     0.04616     0.00185
    29.83931     0.04616     0.00185
    26.43065     0.04645     0.00185
    26.43065     0.04597     0.00186
    26.43065     0.04606     0.00186
    26.43065     0.04540     0.00188
    26.43065     0.04534     0.00188
    21.52489     0.07589     0.00125
    21.52489     0.07561     0.00126
    21.52489     0.07588     0.00124
    21.52489     0.07575     0.00125
    21.52489     0.07561     0.00124
    17.94897     0.11920     0.00057
    17.94897     0.11958     0.00056
    17.94897     0.12000     0.00055
    17.94897     0.12149     0.00051
    17.94897     0.12118     0.00050
    16.58655     0.14380     0.00038
    16.58655     0.14518     0.00036
    16.58655     0.14518     0.00036
    16.58655     0.14887     0.00032
    16.58655     0.14870     0.00032
    17.94897     0.11920     0.00057
    17.94897     0.12000     0.00055
    17.94897     0.11958     0.00056
    17.94897     0.12149     0.00051
    17.94897     0.12118     0.00050
    21.52489     0.07589     0.00125
    21.52489     0.07588     0.00124
    21.52489     0.07561     0.00126
    21.52489     0.07575     0.00125
    21.52489     0.07561     0.00124
    26.43065     0.04645     0.00185
    26.43065     0.04606     0.00186
    26.43065     0.04597     0.00186
    26.43065     0.04540     0.00188
    26.43065     0.04534     0.00188
    15.29900     0.08565     0.00075
    15.29900     0.08550     0.00075
    15.29900     0.08489     0.00077
    15.29900     0.08455     0.00079
    15.29900     0.08459     0.00080
    19.82164     0.04878     0.00172
    19.82164     0.04830     0.00173
    19.82164     0.04823     0.00174
    19.82164     0.04747     0.00177
    19.82164     0.04750     0.00177
    25.41336     0.04542     0.00192
    25.41336     0.04502     0.00193
    25.41336     0.04502     0.00193
    25.41336     0.04455     0.00195
    25.41336     0.04456     0.00195
    31.51006     0.07321     0.00142
    31.51006     0.07313     0.00141
    31.51006     0.07313     0.00141
    31.51006     0.07335     0.00141
    31.51006     0.07331     0.00142
    37.86862     0.11920     0.00057
    37.86862     0.12000     0.00055
    37.86862     0.11958     0.00056
    37.86862     0.12149     0.00051
    37.86862     0.12118     0.00050
    44.37662     0.15792    -0.00013
    44.37662     0.16047    -0.00017
    44.37662     0.15866    -0.00014
    44.37662     0.16402    -0.00023
    44.37662     0.16396    -0.00024
    50.97686     0.13771    -0.00025
    50.97686     0.13904    -0.00029
    50.97686     0.13742    -0.00025
    50.97686     0.13969    -0.00031
    50.97686     0.13951    -0.00031
    10.40135     0.16079    -0.00135
    10.40135     0.16101    -0.00136
    10.40135     0.16101    -0.00136
    10.40135     0.16101    -0.00136
    10.40135     0.16106    -0.00136
    13.71885     0.09425     0.00029
    13.71885     0.09331     0.00032
    13.71885     0.09330     0.00032
    13.71885     0.09154     0.00039
    13.71885     0.09167     0.00039
    19.03495     0.05001     0.00163
    19.03495     0.04941     0.00165
    19.03495     0.04941     0.00165
    19.03495     0.04839     0.00169
    19.03495     0.04837     0.00169
    25.11085     0.04496     0.00194
    25.11085     0.04461     0.00195
    25.11085     0.04460     0.00195
    25.11085     0.04403     0.00197
    25.11085     0.04391     0.00196
    31.51006     0.07321     0.00142
    31.51006     0.07313     0.00141
    31.51006     0.07313     0.00141
    31.51006     0.07335     0.00141
    31.51006     0.07331     0.00142
    38.06989     0.12430     0.00033
    38.06989     0.12488     0.00032
    38.06989     0.12488     0.00032
    38.06989     0.12645     0.00027
    38.06989     0.12614     0.00026
    44.71971     0.18007    -0.00106
    44.71971     0.18212    -0.00111
    44.71971     0.18212    -0.00111
    44.71971     0.18661    -0.00125
    44.71971     0.18564    -0.00133
     8.74188     0.22390    -0.00264
     8.74188     0.22378    -0.00263
     8.74188     0.23067    -0.00280
     8.74188     0.23481    -0.00291
     8.74188     0.23435    -0.00293
     8.81022     0.18937    -0.00258
     8.81022     0.18586    -0.00250
     8.81022     0.19179    -0.00263
     8.81022     0.18695    -0.00250
     8.81022     0.18701    -0.00249
    13.15001     0.09874     0.00003
    13.15001     0.09724     0.00009
    13.15001     0.09765     0.00007
    13.15001     0.09503     0.00018
    13.15001     0.09520     0.00017
    19.03495     0.05001     0.00163
    19.03495     0.04941     0.00165
    19.03495     0.04941     0.00165
    19.03495     0.04839     0.00169
    19.03495     0.04837     0.00169
    25.41336     0.04542     0.00192
    25.41336     0.04502     0.00193
    25.41336     0.04502     0.00193
    25.41336     0.04455     0.00195
    25.41336     0.04456     0.00195
    31.99144     0.07589     0.00125
    31.99144     0.07561     0.00126
    31.99144     0.07588     0.00124
    31.99144     0.07575     0.00125
    31.99144     0.07561     0.00124
    38.66741     0.13771    -0.00025
    38.66741     0.13742    -0.00025
    38.66741     0.13904    -0.00029
    38.66741     0.13969    -0.00031
    38.66741     0.13951    -0.00031
    11.77949     0.15230    -0.00073
    11.77949     0.15015    -0.00072
    11.77949     0.15495    -0.00078
    11.77949     0.15374    -0.00080
    11.77949     0.15334    -0.00078
     7.81898     0.27762    -0.00335
     7.81898     0.26494    -0.00346
     7.81898     0.29887    -0.00343
     7.81898     0.29735    -0.00393
     7.81898     0.29119    -0.00384
     8.81022     0.18937    -0.00258
     8.81022     0.18586    -0.00250
     8.81022     0.19179    -0.00263
     8.81022     0.18695    -0.00250
     8.81022     0.18701    -0.00249
    13.71885     0.09425     0.00029
    13.71885     0.09331     0.00032
    13.71885     0.09330     0.00032
    13.71885     0.09154     0.00039
    13.71885     0.09167     0.00039
    19.82164     0.04878     0.00172
    19.82164     0.04830     0.00173
    19.82164     0.04823     0.00174
    19.82164     0.04747     0.00177
    19.82164     0.04750     0.00177
    26.30002     0.04598     0.00188
    26.30002     0.04554     0.00189
    26.30002     0.04565     0.00189
    26.30002     0.04505     0.00191
    26.30002     0.04501     0.00191
    32.93309     0.07996     0.00106
    32.93309     0.07925     0.00107
    32.93309     0.08017     0.00105
    32.93309     0.07952     0.00106
    32.93309     0.07941     0.00106
    17.18126     0.08204     0.00098
    17.18126     0.08107     0.00099
    17.18126     0.08240     0.00097
    17.18126     0.08143     0.00099
    17.18126     0.08135     0.00099
    11.77949     0.15230    -0.00073
    11.77949     0.15015    -0.00072
    11.77949     0.15495    -0.00078
    11.77949     0.15374    -0.00080
    11.77949     0.15334    -0.00078
     8.74188     0.22390    -0.00264
     8.74188     0.22378    -0.00263
     8.74188     0.23067    -0.00280
     8.74188     0.23481    -0.00291
     8.74188     0.23435    -0.00293
    10.40135     0.16079    -0.00135
    10.40135     0.16101    -0.00136
    10.40135     0.16101    -0.00136
    10.40135     0.16101    -0.00136
    10.40135     0.16106    -0.00136
    15.29899     0.08565     0.00075
    15.29899     0.08550     0.00075
    15.29899     0.08489     0.00077
    15.29899     0.08455     0.00079
    15.29899     0.08459     0.00080
    21.30807     0.04725     0.00181
    21.30807     0.04688     0.00182
    21.30807     0.04669     0.00183
    21.30807     0.04616     0.00185
    21.30807     0.04616     0.00185
    27.71483     0.04652     0.00185
    27.71483     0.04598     0.00186
    27.71483     0.04625     0.00186
    27.71483     0.04556     0.00188
    27.71483     0.04556     0.00188
    23.36104     0.04652     0.00185
    23.36104     0.04598     0.00186
    23.36104     0.04625     0.00186
    23.36104     0.04556     0.00188
    23.36104     0.04556     0.00188
    17.62043     0.07996     0.00106
    17.62043     0.07925     0.00107
    17.62043     0.08017     0.00105
    17.62043     0.07952     0.00106
    17.62043     0.07941     0.00106
    13.01248     0.13771    -0.00025
    13.01248     0.13742    -0.00025
    13.01248     0.13904    -0.00029
    13.01248     0.13969    -0.00031
    13.01248     0.13951    -0.00031
    11.05770     0.18007    -0.00106
    11.05770     0.18212    -0.00111
    11.05770     0.18212    -0.00111
    11.05770     0.18661    -0.00125
    11.05770     0.18564    -0.00133
    13.01248     0.13771    -0.00025
    13.01248     0.13904    -0.00029
    13.01248     0.13742    -0.00025
    13.01248     0.13969    -0.00031
    13.01248     0.13951    -0.00031
    17.62043     0.07996     0.00106
    17.62043     0.08017     0.00105
    17.62043     0.07926     0.00107
    17.62043     0.07952     0.00106
    17.62043     0.07941     0.00106
    23.36104     0.04652     0.00185
    23.36104     0.04625     0.00186
    23.36104     0.04598     0.00186
    23.36104     0.04556     0.00188
    23.36104     0.04556     0.00188
    29.83931     0.04725     0.00181
    29.83931     0.04688     0.00182
    29.83931     0.04669     0.00183
    29.83931     0.04616     0.00185
    29.83931     0.04616     0.00185
    24.00639     0.04598     0.00188
    24.00639     0.04554     0.00189
    24.00639     0.04565     0.00189
    24.00639     0.04505     0.00191
    24.00639     0.04501     0.00191
    18.87676     0.07589     0.00125
    18.87676     0.07561     0.00126
    18.87676     0.07588     0.00124
    18.87676     0.07575     0.00125
    18.87676     0.07561     0.00124
    15.18094     0.12430     0.00033
    15.18094     0.12488     0.00032
    15.18094     0.12488     0.00032
    15.18094     0.12645     0.00027
    15.18094     0.12614     0.00026
    14.09586     0.15792    -0.00013
    14.09586     0.16047    -0.00017
    14.09586     0.15866    -0.00014
    14.09586     0.16402    -0.00023
    14.09586     0.16396    -0.00024
    16.15640     0.12940     0.00014
    16.15640     0.13090     0.00010
    16.15640     0.12896     0.00015
    16.15640     0.13157     0.00007
    16.15640     0.13118     0.00006
    20.43204     0.07996     0.00106
    20.43204     0.08017     0.00105
    20.43204     0.07926     0.00107
    20.43204     0.07952     0.00106
    20.43204     0.07941     0.00106
    11.77949     0.15230    -0.00073
    11.77949     0.15495    -0.00078
    11.77949     0.15015    -0.00072
    11.77949     0.15374    -0.00080
    11.77949     0.15334    -0.00078
    14.79105     0.08847     0.00062
    14.79105     0.08841     0.00062
    14.79105     0.08739     0.00065
    14.79105     0.08700     0.00067
    14.79105     0.08706     0.00068
    19.82164     0.04878     0.00172
    19.82164     0.04830     0.00173
    19.82164     0.04823     0.00174
    19.82164     0.04747     0.00177
    19.82164     0.04750     0.00177
    25.71231     0.04565     0.00190
    25.71231     0.04527     0.00191
    25.71231     0.04527     0.00191
    25.71231     0.04477     0.00193
    25.71231     0.04474     0.00193
    31.99144     0.07589     0.00125
    31.99144     0.07588     0.00124
    31.99144     0.07561     0.00126
    31.99144     0.07575     0.00125
    31.99144     0.07561     0.00124
    38.46927     0.12940     0.00014
    38.46927     0.13090     0.00010
    38.46927     0.12896     0.00015
    38.46927     0.13157     0.00007
    38.46927     0.13118     0.00006
    45.06019     0.18083    -0.00079
    45.06019     0.18593    -0.00086
    45.06019     0.17984    -0.00078
    45.06019     0.18881    -0.00094
    45.06019     0.18816    -0.00094
     8.74188     0.22390    -0.00264
     8.74188     0.23067    -0.00280
     8.74188     0.22377    -0.00263
     8.74188     0.23481    -0.00291
     8.74188     0.23435    -0.00293
     8.81022     0.18937    -0.00258
     8.81022     0.19179    -0.00263
     8.81022     0.18586    -0.00250
     8.81022     0.18695    -0.00250
     8.81022     0.18701    -0.00249
    13.15001     0.09874     0.00003
    13.15001     0.09765     0.00007
    13.15001     0.09724     0.00009
    13.15001     0.09503     0.00018
    13.15001     0.09520     0.00017
    19.03495     0.05001     0.00163
    19.03495     0.04941     0.00165
    19.03495     0.04941     0.00165
    19.03495     0.04839     0.00169
    19.03495     0.04837     0.00169
    25.41336     0.04542     0.00192
    25.41336     0.04502     0.00193
    25.41336     0.04502     0.00193
    25.41336     0.04455     0.00195
    25.41336     0.04456     0.00195
    31.99144     0.07589     0.00125
    31.99144     0.07588     0.00124
    31.99144     0.07561     0.00126
    31.99144     0.07575     0.00125
    31.99144     0.07561     0.00124
    38.66741     0.13771    -0.00025
    38.66741     0.13904    -0.00029
    38.66741     0.13742    -0.00025
    38.66741     0.13969    -0.00031
    38.66741     0.13951    -0.00031
    10.40135     0.16079    -0.00135
    10.40135     0.16101    -0.00136
    10.40135     0.16101    -0.00136
    10.40135     0.16101    -0.00136
    10.40135     0.16106    -0.00136
     5.52885     0.32807    -0.00680
     5.52885     0.33382    -0.00693
     5.52885     0.33382    -0.00693
     5.52885     0.34084    -0.00739
     5.52885     0.34385    -0.00742
     6.85943     0.25954    -0.00568
     6.85943     0.25241    -0.00543
     6.85943     0.25241    -0.00543
     6.85943     0.23702    -0.00490
     6.85943     0.23959    -0.00493
    12.55543     0.10477    -0.00029
    12.55543     0.10286    -0.00022
    12.55543     0.10285    -0.00022
    12.55543     0.09940    -0.00008
    12.55543     0.09974    -0.00010
    19.03495     0.05001     0.00163
    19.03495     0.04941     0.00165
    19.03495     0.04941     0.00165
    19.03495     0.04839     0.00169
    19.03495     0.04837     0.00169
    25.71231     0.04565     0.00190
    25.71231     0.04527     0.00191
    25.71231     0.04527     0.00191
    25.71231     0.04477     0.00193
    25.71231     0.04474     0.00193
    32.46568     0.07991     0.00104
    32.46568     0.07965     0.00104
    32.46568     0.07965     0.00104
    32.46568     0.07938     0.00105
    32.46568     0.07929     0.00105
    15.29899     0.08565     0.00075
    15.29899     0.08488     0.00077
    15.29899     0.08550     0.00075
    15.29899     0.08455     0.00079
    15.29899     0.08459     0.00080
     8.81022     0.18937    -0.00258
     8.81022     0.18586    -0.00250
     8.81022     0.19179    -0.00263
     8.81022     0.18695    -0.00250
     8.81022     0.18701    -0.00249
     3.90949     0.48391    -0.01240
     3.90949     0.45164    -0.01182
     3.90949     0.54814    -0.01360
     3.90949     0.52848    -0.01367
     3.90949     0.52015    -0.01318
     6.85943     0.25954    -0.00568
     6.85943     0.25241    -0.00543
     6.85943     0.25241    -0.00543
     6.85943     0.23702    -0.00490
     6.85943     0.23959    -0.00493
    13.15001     0.09874     0.00003
    13.15001     0.09765     0.00007
    13.15001     0.09724     0.00009
    13.15001     0.09503     0.00018
    13.15001     0.09520     0.00017
    19.82164     0.04878     0.00172
    19.82164     0.04830     0.00173
    19.82164     0.04823     0.00174
    19.82164     0.04747     0.00177
    19.82164     0.04750     0.00177
    26.58901     0.04645     0.00185
    26.58901     0.04597     0.00186
    26.58901     0.04606     0.00186
    26.58901     0.04540     0.00188
    26.58901     0.04534     0.00188
    21.30807     0.04725     0.00181
    21.30807     0.04669     0.00183
    21.30807     0.04688     0.00182
    21.30807     0.04616     0.00185
    21.30807     0.04616     0.00185
    14.79105     0.08847     0.00062
    14.79105     0.08739     0.00065
    14.79105     0.08841     0.00062
    14.79105     0.08700     0.00067
    14.79105     0.08706     0.00068
     8.81022     0.18937    -0.00258
     8.81022     0.18586    -0.00250
     8.81022     0.19179    -0.00263
     8.81022     0.18695    -0.00250
     8.81022     0.18701    -0.00249
     5.52885     0.32807    -0.00680
     5.52885     0.33382    -0.00693
     5.52885     0.33382    -0.00693
     5.52885     0.34084    -0.00739
     5.52885     0.34385    -0.00742
     8.81022     0.18937    -0.00258
     8.81022     0.19179    -0.00263
     8.81022     0.18586    -0.00250
     8.81022     0.18695    -0.00250
     8.81022     0.18701    -0.00249
    14.79105     0.08847     0.00062
    14.79105     0.08841     0.00062
    14.79105     0.08739     0.00065
    14.79105     0.08700     0.00067
    14.79105     0.08706     0.00068
    21.30807     0.04725     0.00181
    21.30807     0.04688     0.00182
    21.30807     0.04669     0.00183
    21.30807     0.04616     0.00185
    21.30807     0.04616     0.00185
    27.71483     0.04652     0.00185
    27.71483     0.04625     0.00186
    27.71483     0.04598     0.00186
    27.71483     0.04556     0.00188
    27.71483     0.04556     0.00188
    21.30807     0.04725     0.00181
    21.30807     0.04669     0.00183
    21.30807     0.04688     0.00182
    21.30807     0.04616     0.00185
    21.30807     0.04616     0.00185
    15.29899     0.08565     0.00075
    15.29899     0.08488     0.00077
    15.29899     0.08550     0.00075
    15.29899     0.08455     0.00079
    15.29899     0.08459     0.00080
    10.40135     0.16079    -0.00135
    10.40135     0.16101    -0.00136
    10.40135     0.16101    -0.00136
    10.40135     0.16101    -0.00136
    10.40135     0.16106    -0.00136
     8.74188     0.22390    -0.00264
     8.74188     0.23067    -0.00280
     8.74188     0.22377    -0.00263
     8.74188     0.23481    -0.00291
     8.74188     0.23435    -0.00293
    11.77949     0.15230    -0.00073
    11.77949     0.15495    -0.00078
    11.77949     0.15015    -0.00072
    11.77949     0.15374    -0.00080
    11.77949     0.15334    -0.00078
    17.18126     0.08204     0.00098
    17.18126     0.08240     0.00097
    17.18126     0.08107     0.00099
    17.18126     0.08143     0.00099
    17.18126     0.08135     0.00099
    34.29713     0.08204     0.00098
    34.29713     0.08240     0.00097
    34.29713     0.08107     0.00099
    34.29713     0.08143     0.00099
    34.29713     0.08135     0.00099
    27.98921     0.04725     0.00181
    27.98921     0.04688     0.00182
    27.98921     0.04669     0.00183
    27.98921     0.04616     0.00185
    27.98921     0.04616     0.00185
    22.01368     0.04645     0.00185
    22.01368     0.04597     0.00186
    22.01368     0.04606     0.00186
    22.01368     0.04540     0.00188
    22.01368     0.04534     0.00188
    16.73056     0.07991     0.00104
    16.73056     0.07965     0.00104
    16.73056     0.07965     0.00104
    16.73056     0.07938     0.00105
    16.73056     0.07929     0.00105
    13.01248     0.13771    -0.00025
    13.01248     0.13904    -0.00029
    13.01248     0.13742    -0.00025
    13.01248     0.13969    -0.00031
    13.01248     0.13951    -0.00031
    12.36289     0.18083    -0.00079
    12.36289     0.18593    -0.00086
    12.36289     0.17984    -0.00078
    12.36289     0.18881    -0.00094
    12.36289     0.18816    -0.00094
    15.18094     0.14031    -0.00015
    15.18094     0.14296    -0.00020
    15.18094     0.13853    -0.00016
    15.18094     0.14233    -0.00025
    15.18094     0.14181    -0.00025
    11.72847     0.20270    -0.00083
    11.72847     0.21312    -0.00078
    11.72847     0.19698    -0.00096
    11.72847     0.21430    -0.00105
    11.72847     0.21122    -0.00106
    11.77949     0.15230    -0.00073
    11.77949     0.15495    -0.00078
    11.77949     0.15015    -0.00072
    11.77949     0.15374    -0.00080
    11.77949     0.15334    -0.00078
    15.29899     0.08565     0.00075
    15.29899     0.08550     0.00075
    15.29899     0.08489     0.00077
    15.29899     0.08455     0.00079
    15.29899     0.08459     0.00080
    20.57828     0.04766     0.00178
    20.57828     0.04720     0.00179
    20.57828     0.04720     0.00179
    20.57828     0.04653     0.00182
    20.57828     0.04652     0.00182
    26.58901     0.04645     0.00185
    26.58901     0.04606     0.00186
    26.58901     0.04597     0.00186
    26.58901     0.04540     0.00188
    26.58901     0.04534     0.00188
    32.93309     0.07996     0.00106
    32.93309     0.08017     0.00105
    32.93309     0.07926     0.00107
    32.93309     0.07952     0.00106
    32.93309     0.07941     0.00106
    39.45003     0.14031    -0.00015
    39.45003     0.14296    -0.00020
    39.45003     0.13853    -0.00016
    39.45003     0.14233    -0.00025
    39.45003     0.14181    -0.00025
    11.77949     0.15230    -0.00073
    11.77949     0.15495    -0.00078
    11.77949     0.15015    -0.00072
    11.77949     0.15374    -0.00080
    11.77949     0.15334    -0.00078
     7.81898     0.27762    -0.00335
     7.81898     0.29888    -0.00343
     7.81898     0.26494    -0.00346
     7.81898     0.29735    -0.00393
     7.81898     0.29119    -0.00384
     8.81022     0.18937    -0.00258
     8.81022     0.19179    -0.00263
     8.81022     0.18586    -0.00250
     8.81022     0.18695    -0.00250
     8.81022     0.18701    -0.00249
    13.71885     0.09425     0.00029
    13.71885     0.09331     0.00032
    13.71885     0.09330     0.00032
    13.71885     0.09154     0.00039
    13.71885     0.09167     0.00039
    19.82164     0.04878     0.00172
    19.82164     0.04823     0.00174
    19.82164     0.04830     0.00173
    19.82164     0.04747     0.00177
    19.82164     0.04750     0.00177
    26.30002     0.04598     0.00188
    26.30002     0.04565     0.00189
    26.30002     0.04554     0.00189
    26.30002     0.04505     0.00191
    26.30002     0.04501     0.00191
    32.93309     0.07996     0.00106
    32.93309     0.08017     0.00105
    32.93309     0.07926     0.00107
    32.93309     0.07952     0.00106
    32.93309     0.07941     0.00106
    15.29899     0.08565     0.00075
    15.29899     0.08550     0.00075
    15.29899     0.08489     0.00077
    15.29899     0.08455     0.00079
    15.29899     0.08459     0.00080
     8.81022     0.18937    -0.00258
     8.81022     0.19179    -0.00263
     8.81022     0.18586    -0.00250
     8.81022     0.18695    -0.00250
     8.81022     0.18701    -0.00249
     3.90949     0.48391    -0.01240
     3.90949     0.54813    -0.01360
     3.90949     0.45164    -0.01182
     3.90949     0.52848    -0.01367
     3.90949     0.52015    -0.01318
     6.85943     0.25954    -0.00568
     6.85943     0.25241    -0.00543
     6.85943     0.25241    -0.00543
     6.85943     0.23702    -0.00490
     6.85943     0.23959    -0.00493
    13.15001     0.09874     0.00003
    13.15001     0.09724     0.00009
    13.15001     0.09765     0.00007
    13.15001     0.09503     0.00018
    13.15001     0.09520     0.00017
    19.82164     0.04878     0.00172
    19.82164     0.04823     0.00174
    19.82164     0.04830     0.00173
    19.82164     0.04747     0.00177
    19.82164     0.04750     0.00177
    26.58901     0.04645     0.00185
    26.58901     0.04606     0.00186
    26.58901     0.04597     0.00186
    26.58901     0.04540     0.00188
    26.58901     0.04534     0.00188
    20.57828     0.04766     0.00178
    20.57828     0.04720     0.00179
    20.57828     0.04720     0.00179
    20.57828     0.04653     0.00182
    20.57828     0.04652     0.00182
    13.71885     0.09425     0.00029
    13.71885     0.09331     0.00032
    13.71885     0.09330     0.00032
    13.71885     0.09154     0.00039
    13.71885     0.09167     0.00039
     6.85943     0.25954    -0.00568
     6.85943     0.25241    -0.00543
     6.85943     0.25241    -0.00543
     6.85943     0.23702    -0.00490
     6.85943     0.23959    -0.00493
     0.00000     2.30079    -0.04726
     0.00000     1.55394    -0.04638
     0.00000     1.55395    -0.04638
     0.00000     1.27479    -0.04291
     0.00000     1.24815    -0.04357
     6.85943     0.25954    -0.00568
     6.85943     0.25241    -0.00543
     6.85943     0.25241    -0.00543
     6.85943     0.23702    -0.00490
     6.85943     0.23959    -0.00493
    13.71885     0.09425     0.00029
    13.71885     0.09331     0.00032
    13.71885     0.09330     0.00032
    13.71885     0.09154     0.00039
    13.71885     0.09167     0.00039
    20.57828     0.04766     0.00178
    20.57828     0.04720     0.00179
    20.57828     0.04720     0.00179
    20.57828     0.04653     0.00182
    20.57828     0.04652     0.00182
    26.58901     0.04645     0.00185
    26.58901     0.04606     0.00186
    26.58901     0.04597     0.00186
    26.58901     0.04540     0.00188
    26.58901     0.04534     0.00188
    19.82164     0.04878     0.00172
    19.82164     0.04823     0.00174
    19.82164     0.04830     0.00173
    19.82164     0.04747     0.00177
    19.82164     0.04750     0.00177
    13.15001     0.09874     0.00003
    13.15001     0.09724     0.00009
    13.15001     0.09765     0.00007
    13.15001     0.09503     0.00018
    13.15001     0.09520     0.00017
     6.85943     0.25954    -0.00568
     6.85943     0.25241    -0.00543
     6.85943     0.25241    -0.00543
     6.85943     0.23702    -0.00490
     6.85943     0.23959    -0.00493
     3.90949     0.48391    -0.01240
     3.90949     0.54813    -0.01360
     3.90949     0.45164    -0.01182
     3.90949     0.52848    -0.01367
     3.90949     0.52015    -0.01318
     8.81022     0.18937    -0.00258
     8.81022     0.19179    -0.00263
     8.81022     0.18586    -0.00250
     8.81022     0.18695    -0.00250
     8.81022     0.18701    -0.00249
    15.29899     0.08565     0.00075
    15.29899     0.08550     0.00075
    15.29899     0.08489     0.00077
    15.29899     0.08455     0.00079
    15.29899     0.08459     0.00080
    32.93309     0.07996     0.00106
    32.93309     0.08017     0.00105
    32.93309     0.07926     0.00107
    32.93309     0.07952     0.00106
    32.93309     0.07941     0.00106
    26.30002     0.04598     0.00188
    26.30002     0.04565     0.00189
    26.30002     0.04554     0.00189
    26.30002     0.04505     0.00191
    26.30002     0.04501     0.00191
    19.82164     0.04878     0.00172
    19.82164     0.04823     0.00174
    19.82164     0.04830     0.00173
    19.82164     0.04747     0.00177
    19.82164     0.04750     0.00177
    13.71885     0.09425     0.00029
    13.71885     0.09331     0.00032
    13.71885     0.09330     0.00032
    13.71885     0.09154     0.00039
    13.71885     0.09167     0.00039
     8.81022     0.18937    -0.00258
     8.81022     0.19179    -0.00263
     8.81022     0.18586    -0.00250
     8.81022     0.18695    -0.00250
     8.81022     0.18701    -0.00249
     7.81898     0.27762    -0.00335
     7.81898     0.29888    -0.00343
     7.81898     0.26494    -0.00346
     7.81898     0.29735    -0.00393
     7.81898     0.29119    -0.00384
    11.77949     0.15230    -0.00073
    11.77949     0.15495    -0.00078
    11.77949     0.15015    -0.00072
    11.77949     0.15374    -0.00080
    11.77949     0.15334    -0.00078
    39.45003     0.14031    -0.00015
    39.45003     0.14296    -0.00020
    39.45003     0.13853    -0.00016
    39.45003     0.14233    -0.00025
    39.45003     0.14181    -0.00025
    32.93309     0.07996     0.00106
    32.93309     0.08017     0.00105
    32.93309     0.07926     0.00107
    32.93309     0.07952     0.00106
    32.93309     0.07941     0.00106
    26.58901     0.04645     0.00185
    26.58901     0.04606     0.00186
    26.58901     0.04597     0.00186
    26.58901     0.04540     0.00188
    26.58901     0.04534     0.00188
    20.57828     0.04766     0.00178
    20.57828     0.04720     0.00179
    20.57828     0.04720     0.00179
    20.57828     0.04653     0.00182
    20.57828     0.04652     0.00182
    15.29899     0.08565     0.00075
    15.29899     0.08550     0.00075
    15.29899     0.08489     0.00077
    15.29899     0.08455     0.00079
    15.29899     0.08459     0.00080
    11.77949     0.15230    -0.00073
    11.77949     0.15495    -0.00078
    11.77949     0.15015    -0.00072
    11.77949     0.15374    -0.00080
    11.77949     0.15334    -0.00078
    11.72847     0.20270    -0.00083
    11.72847     0.21312    -0.00078
    11.72847     0.19698    -0.00096
    11.72847     0.21430    -0.00105
    11.72847     0.21122    -0.00106
    15.18094     0.14031    -0.00015
    15.18094     0.14296    -0.00020
    15.18094     0.13853    -0.00016
    15.18094     0.14233    -0.00025
    15.18094     0.14181    -0.00025
    12.36289     0.18083    -0.00079
    12.36289     0.18593    -0.00086
    12.36289     0.17984    -0.00078
    12.36289     0.18881    -0.00094
    12.36289     0.18816    -0.00094
    13.01248     0.13771    -0.00025
    13.01248     0.13904    -0.00029
    13.01248     0.13742    -0.00025
    13.01248     0.13969    -0.00031
    13.01248     0.13951    -0.00031
    16.73056     0.07991     0.00104
    16.73056     0.07965     0.00104
    16.73056     0.07965     0.00104
    16.73056     0.07938     0.00105
    16.73056     0.07929     0.00105
    22.01368     0.04645     0.00185
    22.01368     0.04597     0.00186
    22.01368     0.04606     0.00186
    22.01368     0.04540     0.00188
    22.01368     0.04534     0.00188
    27.98921     0.04725     0.00181
    27.98921     0.04688     0.00182
    27.98921     0.04669     0.00183
    27.98921     0.04616     0.00185
    27.98921     0.04616     0.00185
    34.29713     0.08204     0.00098
    34.29713     0.08240     0.00097
    34.29713     0.08107     0.00099
    34.29713     0.08143     0.00099
    34.29713     0.08135     0.00099
    17.18126     0.08204     0.00098
    17.18126     0.08240     0.00097
    17.18126     0.08107     0.00099
    17.18126     0.08143     0.00099
    17.18126     0.08135     0.00099
    11.77949     0.15230    -0.00073
    11.77949     0.15495    -0.00078
    11.77949     0.15015    -0.00072
    11.77949     0.15374    -0.00080
    11.77949     0.15334    -0.00078
     8.74188     0.22390    -0.00264
     8.74188     0.23067    -0.00280
     8.74188     0.22377    -0.00263
     8.74188     0.23481    -0.00291
     8.74188     0.23435    -0.00293
    10.40135     0.16079    -0.00135
    10.40135     0.16101    -0.00136
    10.40135     0.16101    -0.00136
    10.40135     0.16101    -0.00136
    10.40135     0.16106    -0.00136
    15.29899     0.08565     0.00075
    15.29899     0.08488     0.00077
    15.29899     0.08550     0.00075
    15.29899     0.08455     0.00079
    15.29899     0.08459     0.00080
    21.30807     0.04725     0.00181
    21.30807     0.04669     0.00183
    21.30807     0.04688     0.00182
    21.30807     0.04616     0.00185
    21.30807     0.04616     0.00185
    27.71483     0.04652     0.00185
    27.71483     0.04625     0.00186
    27.71483     0.04598     0.00186
    27.71483     0.04556     0.00188
    27.71483     0.04556     0.00188
    21.30807     0.04725     0.00181
    21.30807     0.04688     0.00182
    21.30807     0.04669     0.00183
    21.30807     0.04616     0.00185
    21.30807     0.04616     0.00185
    14.79105     0.08847     0.00062
    14.79105     0.08841     0.00062
    14.79105     0.08739     0.00065
    14.79105     0.08700     0.00067
    14.79105     0.08706     0.00068
     8.81022     0.18937    -0.00258
     8.81022     0.19179    -0.00263
     8.81022     0.18586    -0.00250
     8.81022     0.18695    -0.00250
     8.81022     0.18701    -0.00249
     5.52885     0.32807    -0.00680
     5.52885     0.33382    -0.00693
     5.52885     0.33382    -0.00693
     5.52885     0.34084    -0.00739
     5.52885     0.34385    -0.00742
     8.81022     0.18937    -0.00258
     8.81022     0.18586    -0.00250
     8.81022     0.19179    -0.00263
     8.81022     0.18695    -0.00250
     8.81022     0.18701    -0.00249
    14.79105     0.08847     0.00062
    14.79105     0.08739     0.00065
    14.79105     0.08841     0.00062
    14.79105     0.08700     0.00067
    14.79105     0.08706     0.00068
    21.30807     0.04725     0.00181
    21.30807     0.04669     0.00183
    21.30807     0.04688     0.00182
    21.30807     0.04616     0.00185
    21.30807     0.04616     0.00185
    26.58901     0.04645     0.00185
    26.58901     0.04597     0.00186
    26.58901     0.04606     0.00186
    26.58901     0.04540     0.00188
    26.58901     0.04534     0.00188
    19.82164     0.04878     0.00172
    19.82164     0.04830     0.00173
    19.82164     0.04823     0.00174
    19.82164     0.04747     0.00177
    19.82164     0.04750     0.00177
    13.15001     0.09874     0.00003
    13.15001     0.09765     0.00007
    13.15001     0.09724     0.00009
    13.15001     0.09503     0.00018
    13.15001     0.09520     0.00017
     6.85943     0.25954    -0.00568
     6.85943     0.25241    -0.00543
     6.85943     0.25241    -0.00543
     6.85943     0.23702    -0.00490
     6.85943     0.23959    -0.00493
     3.90949     0.48391    -0.01240
     3.90949     0.45164    -0.01182
     3.90949     0.54814    -0.01360
     3.90949     0.52848    -0.01367
     3.90949     0.52015    -0.01318
     8.81022     0.18937    -0.00258
     8.81022     0.18586    -0.00250
     8.81022     0.19179    -0.00263
     8.81022     0.18695    -0.00250
     8.81022     0.18701    -0.00249
    15.29899     0.08565     0.00075
    15.29899     0.08488     0.00077
    15.29899     0.08550     0.00075
    15.29899     0.08455     0.00079
    15.29899     0.08459     0.00080
    32.46568     0.07991     0.00104
    32.46568     0.07965     0.00104
    32.46568     0.07965     0.00104
    32.46568     0.07938     0.00105
    32.46568     0.07929     0.00105
    25.71231     0.04565     0.00190
    25.71231     0.04527     0.00191
    25.71231     0.04527     0.00191
    25.71231     0.04477     0.00193
    25.71231     0.04474     0.00193
    19.03495     0.05001     0.00163
    19.03495     0.04941     0.00165
    19.03495     0.04941     0.00165
    19.03495     0.04839     0.00169
    19.03495     0.04837     0.00169
    12.55543     0.10477    -0.00029
    12.55543     0.10286    -0.00022
    12.55543     0.10285    -0.00022
    12.55543     0.09940    -0.00008
    12.55543     0.09974    -0.00010
     6.85943     0.25954    -0.00568
     6.85943     0.25241    -0.00543
     6.85943     0.25241    -0.00543
     6.85943     0.23702    -0.00490
     6.85943     0.23959    -0.00493
     5.52885     0.32807    -0.00680
     5.52885     0.33382    -0.00693
     5.52885     0.33382    -0.00693
     5.52885     0.34084    -0.00739
     5.52885     0.34385    -0.00742
    10.40135     0.16079    -0.00135
    10.40135     0.16101    -0.00136
    10.40135     0.16101    -0.00136
    10.40135     0.16101    -0.00136
    10.40135     0.16106    -0.00136
    38.66741     0.13771    -0.00025
    38.66741     0.13904    -0.00029
    38.66741     0.13742    -0.00025
    38.66741     0.13969    -0.00031
    38.66741     0.13951    -0.00031
    31.99144     0.07589     0.00125
    31.99144     0.07588     0.00124
    31.99144     0.07561     0.00126
    31.99144     0.07575     0.00125
    31.99144     0.07561     0.00124
    25.41336     0.04542     0.00192
    25.41336     0.04502     0.00193
    25.41336     0.04502     0.00193
    25.41336     0.04455     0.00195
    25.41336     0.04456     0.00195
    19.03495     0.05001     0.00163
    19.03495     0.04941     0.00165
    19.03495     0.04941     0.00165
    19.03495     0.04839     0.00169
    19.03495     0.04837     0.00169
    13.15001     0.09874     0.00003
    13.15001     0.09765     0.00007
    13.15001     0.09724     0.00009
    13.15001     0.09503     0.00018
    13.15001     0.09520     0.00017
     8.81022     0.18937    -0.00258
     8.81022     0.19179    -0.00263
     8.81022     0.18586    -0.00250
     8.81022     0.18695    -0.00250
     8.81022     0.18701    -0.00249
     8.74188     0.22390    -0.00264
     8.74188     0.23067    -0.00280
     8.74188     0.22377    -0.00263
     8.74188     0.23481    -0.00291
     8.74188     0.23435    -0.00293
    45.06019     0.18083    -0.00079
    45.06019     0.18593    -0.00086
    45.06019     0.17984    -0.00078
    45.06019     0.18881    -0.00094
    45.06019     0.18816    -0.00094
    38.46927     0.12940     0.00014
    38.46927     0.13090     0.00010
    38.46927     0.12896     0.00015
    38.46927     0.13157     0.00007
    38.46927     0.13118     0.00006
    31.99144     0.07589     0.00125
    31.99144     0.07588     0.00124
    31.99144     0.07561     0.00126
    31.99144     0.07575     0.00125
    31.99144     0.07561     0.00124
    25.71231     0.04565     0.00190
    25.71231     0.04527     0.00191
    25.71231     0.04527     0.00191
    25.71231     0.04477     0.00193
    25.71231     0.04474     0.00193
    19.82164     0.04878     0.00172
    19.82164     0.04830     0.00173
    19.82164     0.04823     0.00174
    19.82164     0.04747     0.00177
    19.82164     0.04750     0.00177
    14.79105     0.08847     0.00062
    14.79105     0.08841     0.00062
    14.79105     0.08739     0.00065
    14.79105     0.08700     0.00067
    14.79105     0.08706     0.00068
    11.77949     0.15230    -0.00073
    11.77949     0.15495    -0.00078
    11.77949     0.15015    -0.00072
    11.77949     0.15374    -0.00080
    11.77949     0.15334    -0.00078
    20.43204     0.07996     0.00106
    20.43204     0.08017     0.00105
    20.43204     0.07926     0.00107
    20.43204     0.07952     0.00106
    20.43204     0.07941     0.00106
    16.15640     0.12940     0.00014
    16.15640     0.13090     0.00010
    16.15640     0.12896     0.00015
    16.15640     0.13157     0.00007
    16.15640     0.13118     0.00006
    14.09586     0.15792    -0.00013
    14.09586     0.16047    -0.00017
    14.09586     0.15866    -0.00014
    14.09586     0.16402    -0.00023
    14.09586     0.16396    -0.00024
    15.18094     0.12430     0.00033
    15.18094     0.12488     0.00032
    15.18094     0.12488     0.00032
    15.18094     0.12645     0.00027
    15.18094     0.12614     0.00026
    18.87676     0.07589     0.00125
    18.87676     0.07561     0.00126
    18.87676     0.07588     0.00124
    18.87676     0.07575     0.00125
    18.87676     0.07561     0.00124
    24.00639     0.04598     0.00188
    24.00639     0.04554     0.00189
    24.00639     0.04565     0.00189
    24.00639     0.04505     0.00191
    24.00639     0.04501     0.00191
    29.83931     0.04725     0.00181
    29.83931     0.04688     0.00182
    29.83931     0.04669     0.00183
    29.83931     0.04616     0.00185
    29.83931     0.04616     0.00185
    23.36104     0.04652     0.00185
    23.36104     0.04625     0.00186
    23.36104     0.04598     0.00186
    23.36104     0.04556     0.00188
    23.36104     0.04556     0.00188
    17.62043     0.07996     0.00106
    17.62043     0.08017     0.00105
    17.62043     0.07926     0.00107
    17.62043     0.07952     0.00106
    17.62043     0.07941     0.00106
    13.01248     0.13771    -0.00025
    13.01248     0.13904    -0.00029
    13.01248     0.13742    -0.00025
    13.01248     0.13969    -0.00031
    13.01248     0.13951    -0.00031
    11.05770     0.18007    -0.00106
    11.05770     0.18212    -0.00111
    11.05770     0.18212    -0.00111
    11.05770     0.18661    -0.00125
    11.05770     0.18564    -0.00133
    13.01248     0.13771    -0.00025
    13.01248     0.13742    -0.00025
    13.01248     0.13904    -0.00029
    13.01248     0.13969    -0.00031
    13.01248     0.13951    -0.00031
    17.62043     0.07996     0.00106
    17.62043     0.07925     0.00107
    17.62043     0.08017     0.00105
    17.62043     0.07952     0.00106
    17.62043     0.07941     0.00106
    23.36104     0.04652     0.00185
    23.36104     0.04598     0.00186
    23.36104     0.04625     0.00186
    23.36104     0.04556     0.00188
    23.36104     0.04556     0.00188
    27.71483     0.04652     0.00185
    27.71483     0.04598     0.00186
    27.71483     0.04625     0.00186
    27.71483     0.04556     0.00188
    27.71483     0.04556     0.00188
    21.30807     0.04725     0.00181
    21.30807     0.04688     0.00182
    21.30807     0.04669     0.00183
    21.30807     0.04616     0.00185
    21.30807     0.04616     0.00185
    15.29899     0.08565     0.00075
    15.29899     0.08550     0.00075
    15.29899     0.08489     0.00077
    15.29899     0.08455     0.00079
    15.29899     0.08459     0.00080
    10.40135     0.16079    -0.00135
    10.40135     0.16101    -0.00136
    10.40135     0.16101    -0.00136
    10.40135     0.16101    -0.00136
    10.40135     0.16106    -0.00136
     8.74188     0.22390    -0.00264
     8.74188     0.22378    -0.00263
     8.74188     0.23067    -0.00280
     8.74188     0.23481    -0.00291
     8.74188     0.23435    -0.00293
    11.77949     0.15230    -0.00073
    11.77949     0.15015    -0.00072
    11.77949     0.15495    -0.00078
    11.77949     0.15374    -0.00080
    11.77949     0.15334    -0.00078
    17.18126     0.08204     0.00098
    17.18126     0.08107     0.00099
    17.18126     0.08240     0.00097
    17.18126     0.08143     0.00099
    17.18126     0.08135     0.00099
    32.93309     0.07996     0.00106
    32.93309     0.07925     0.00107
    32.93309     0.08017     0.00105
    32.93309     0.07952     0.00106
    32.93309     0.07941     0.00106
    26.30002     0.04598     0.00188
    26.30002     0.04554     0.00189
    26.30002     0.04565     0.00189
    26.30002     0.04505     0.00191
    26.30002     0.04501     0.00191
    19.82164     0.04878     0.00172
    19.82164     0.04830     0.00173
    19.82164     0.04823     0.00174
    19.82164     0.04747     0.00177
    19.82164     0.04750     0.00177
    13.71885     0.09425     0.00029
    13.71885     0.09331     0.00032
    13.71885     0.09330     0.00032
    13.71885     0.09154     0.00039
    13.71885     0.09167     0.00039
     8.81022     0.18937    -0.00258
     8.81022     0.18586    -0.00250
     8.81022     0.19179    -0.00263
     8.81022     0.18695    -0.00250
     8.81022     0.18701    -0.00249
     7.81898     0.27762    -0.00335
     7.81898     0.26494    -0.00346
     7.81898     0.29887    -0.00343
     7.81898     0.29735    -0.00393
     7.81898     0.29119    -0.00384
    11.77949     0.15230    -0.00073
    11.77949     0.15015    -0.00072
    11.77949     0.15495    -0.00078
    11.77949     0.15374    -0.00080
    11.77949     0.15334    -0.00078
    38.66741     0.13771    -0.00025
    38.66741     0.13742    -0.00025
    38.66741     0.13904    -0.00029
    38.66741     0.13969    -0.00031
    38.66741     0.13951    -0.00031
    31.99144     0.07589     0.00125
    31.99144     0.07561     0.00126
    31.99144     0.07588     0.00124
    31.99144     0.07575     0.00125
    31.99144     0.07561     0.00124
    25.41336     0.04542     0.00192
    25.41336     0.04502     0.00193
    25.41336     0.04502     0.00193
    25.41336     0.04455     0.00195
    25.41336     0.04456     0.00195
    19.03495     0.05001     0.00163
    19.03495     0.04941     0.00165
    19.03495     0.04941     0.00165
    19.03495     0.04839     0.00169
    19.03495     0.04837     0.00169
    13.15001     0.09874     0.00003
    13.15001     0.09724     0.00009
    13.15001     0.09765     0.00007
    13.15001     0.09503     0.00018
    13.15001     0.09520     0.00017
     8.81022     0.18937    -0.00258
     8.81022     0.18586    -0.00250
     8.81022     0.19179    -0.00263
     8.81022     0.18695    -0.00250
     8.81022     0.18701    -0.00249
     8.74188     0.22390    -0.00264
     8.74188     0.22378    -0.00263
     8.74188     0.23067    -0.00280
     8.74188     0.23481    -0.00291
     8.74188     0.23435    -0.00293
    44.71971     0.18007    -0.00106
    44.71971     0.18212    -0.00111
    44.71971     0.18212    -0.00111
    44.71971     0.18661    -0.00125
    44.71971     0.18564    -0.00133
    38.06989     0.12430     0.00033
    38.06989     0.12488     0.00032
    38.06989     0.12488     0.00032
    38.06989     0.12645     0.00027
    38.06989     0.12614     0.00026
    31.51006     0.07321     0.00142
    31.51006     0.07313     0.00141
    31.51006     0.07313     0.00141
    31.51006     0.07335     0.00141
    31.51006     0.07331     0.00142
    25.11085     0.04496     0.00194
    25.11085     0.04461     0.00195
    25.11085     0.04460     0.00195
    25.11085     0.04403     0.00197
    25.11085     0.04391     0.00196
    19.03495     0.05001     0.00163
    19.03495     0.04941     0.00165
    19.03495     0.04941     0.00165
    19.03495     0.04839     0.00169
    19.03495     0.04837     0.00169
    13.71885     0.09425     0.00029
    13.71885     0.09331     0.00032
    13.71885     0.09330     0.00032
    13.71885     0.09154     0.00039
    13.71885     0.09167     0.00039
    10.40135     0.16079    -0.00135
    10.40135     0.16101    -0.00136
    10.40135     0.16101    -0.00136
    10.40135     0.16101    -0.00136
    10.40135     0.16106    -0.00136
    50.97686     0.13771    -0.00025
    50.97686     0.13904    -0.00029
    50.97686     0.13742    -0.00025
    50.97686     0.13969    -0.00031
    50.97686     0.13951    -0.00031
    44.37662     0.15792    -0.00013
    44.37662     0.16047    -0.00017
    44.37662     0.15866    -0.00014
    44.37662     0.16402    -0.00023
    44.37662     0.16396    -0.00024
    37.86862     0.11920     0.00057
    37.86862     0.12000     0.00055
    37.86862     0.11958     0.00056
    37.86862     0.12149     0.00051
    37.86862     0.12118     0.00050
    31.51006     0.07321     0.00142
    31.51006     0.07313     0.00141
    31.51006     0.07313     0.00141
    31.51006     0.07335     0.00141
    31.51006     0.07331     0.00142
    25.41336     0.04542     0.00192
    25.41336     0.04502     0.00193
    25.41336     0.04502     0.00193
    25.41336     0.04455     0.00195
    25.41336     0.04456     0.00195
    19.82164     0.04878     0.00172
    19.82164     0.04830     0.00173
    19.82164     0.04823     0.00174
    19.82164     0.04747     0.00177
    19.82164     0.04750     0.00177
    15.29900     0.08565     0.00075
    15.29900     0.08550     0.00075
    15.29900     0.08489     0.00077
    15.29900     0.08455     0.00079
    15.29900     0.08459     0.00080
    26.43065     0.04645     0.00185
    26.43065     0.04606     0.00186
    26.43065     0.04597     0.00186
    26.43065     0.04540     0.00188
    26.43065     0.04534     0.00188
    21.52489     0.07589     0.00125
    21.52489     0.07588     0.00124
    21.52489     0.07561     0.00126
    21.52489     0.07575     0.00125
    21.52489     0.07561     0.00124
    17.94897     0.11920     0.00057
    17.94897     0.12000     0.00055
    17.94897     0.11958     0.00056
    17.94897     0.12149     0.00051
    17.94897     0.12118     0.00050
    16.58655     0.14380     0.00038
    16.58655     0.14518     0.00036
    16.58655     0.14518     0.00036
    16.58655     0.14887     0.00032
    16.58655     0.14870     0.00032
    17.94897     0.11920     0.00057
    17.94897     0.11958     0.00056
    17.94897     0.12000     0.00055
    17.94897     0.12149     0.00051
    17.94897     0.12118     0.00050
    21.52489     0.07589     0.00125
    21.52489     0.07561     0.00126
    21.52489     0.07588     0.00124
    21.52489     0.07575     0.00125
    21.52489     0.07561     0.00124
    26.43065     0.04645     0.00185
    26.43065     0.04597     0.00186
    26.43065     0.04606     0.00186
    26.43065     0.04540     0.00188
    26.43065     0.04534     0.00188
    29.83931     0.04725     0.00181
    29.83931     0.04669     0.00183
    29.83931     0.04688     0.00182
    29.83931     0.04616     0.00185
    29.83931     0.04616     0.00185
    24.00639     0.04598     0.00188
    24.00639     0.04565     0.00189
    24.00639     0.04554     0.00189
    24.00639     0.04505     0.00191
    24.00639     0.04501     0.00191
    18.87676     0.07589     0.00125
    18.87676     0.07588     0.00124
    18.87676     0.07561     0.00126
    18.87676     0.07575     0.00125
    18.87676     0.07561     0.00124
    15.18094     0.12430     0.00033
    15.18094     0.12488     0.00032
    15.18094     0.12488     0.00032
    15.18094     0.12645     0.00027
    15.18094     0.12614     0.00026
    14.09586     0.15792    -0.00013
    14.09586     0.15866    -0.00014
    14.09586     0.16047    -0.00017
    14.09586     0.16402    -0.00023
    14.09586     0.16396    -0.00024
    16.15640     0.12940     0.00014
    16.15640     0.12896     0.00015
    16.15640     0.13090     0.00010
    16.15640     0.13157     0.00007
    16.15640     0.13118     0.00006
    20.43204     0.07996     0.00106
    20.43204     0.07925     0.00107
    20.43204     0.08017     0.00105
    20.43204     0.07952     0.00106
    20.43204     0.07941     0.00106
    34.29713     0.08204     0.00098
    34.29713     0.08107     0.00099
    34.29713     0.08240     0.00097
    34.29713     0.08143     0.00099
    34.29713     0.08135     0.00099
    27.98921     0.04725     0.00181
    27.98921     0.04669     0.00183
    27.98921     0.04688     0.00182
    27.98921     0.04616     0.00185
    27.98921     0.04616     0.00185
    22.01368     0.04645     0.00185
    22.01368     0.04606     0.00186
    22.01368     0.04597     0.00186
    22.01368     0.04540     0.00188
    22.01368     0.04534     0.00188
    16.73056     0.07991     0.00104
    16.73056     0.07965     0.00104
    16.73056     0.07965     0.00104
    16.73056     0.07938     0.00105
    16.73056     0.07929     0.00105
    13.01248     0.13771    -0.00025
    13.01248     0.13742    -0.00025
    13.01248     0.13904    -0.00029
    13.01248     0.13969    -0.00031
    13.01248     0.13951    -0.00031
    12.36289     0.18083    -0.00079
    12.36289     0.17984    -0.00078
    12.36289     0.18593    -0.00087
    12.36289     0.18881    -0.00094
    12.36289     0.18816    -0.00094
    15.18094     0.14031    -0.00015
    15.18094     0.13853    -0.00016
    15.18094     0.14296    -0.00020
    15.18094     0.14233    -0.00025
    15.18094     0.14181    -0.00025
    39.45003     0.14031    -0.00015
    39.45003     0.13853    -0.00016
    39.45003     0.14296    -0.00020
    39.45003     0.14233    -0.00025
    39.45003     0.14181    -0.00025
    32.93309     0.07996     0.00106
    32.93309     0.07925     0.00107
    32.93309     0.08017     0.00105
    32.93309     0.07952     0.00106
    32.93309     0.07941     0.00106
    26.58901     0.04645     0.00185
    26.58901     0.04597     0.00186
    26.58901     0.04606     0.00186
    26.58901     0.04540     0.00188
    26.58901     0.04534     0.00188
    20.57828     0.04766     0.00178
    20.57828     0.04720     0.00179
    20.57828     0.04720     0.00179
    20.57828     0.04653     0.00182
    20.57828     0.04652     0.00182
    15.29899     0.08565     0.00075
    15.29899     0.08488     0.00077
    15.29899     0.08550     0.00075
    15.29899     0.08455     0.00079
    15.29899     0.08459     0.00080
    11.77949     0.15230    -0.00073
    11.77949     0.15015    -0.00072
    11.77949     0.15495    -0.00078
    11.77949     0.15374    -0.00080
    11.77949     0.15334    -0.00078
    11.72847     0.20270    -0.00083
    11.72847     0.19698    -0.00096
    11.72847     0.21312    -0.00078
    11.72847     0.21430    -0.00105
    11.72847     0.21122    -0.00106
    45.06019     0.18083    -0.00079
    45.06019     0.17984    -0.00078
    45.06019     0.18593    -0.00087
    45.06019     0.18881    -0.00094
    45.06019     0.18816    -0.00094
    38.46927     0.12940     0.00014
    38.46927     0.12896     0.00015
    38.46927     0.13090     0.00010
    38.46927     0.13157     0.00007
    38.46927     0.13118     0.00006
    31.99144     0.07589     0.00125
    31.99144     0.07561     0.00126
    31.99144     0.07588     0.00124
    31.99144     0.07575     0.00125
    31.99144     0.07561     0.00124
    25.71231     0.04565     0.00190
    25.71231     0.04527     0.00191
    25.71231     0.04527     0.00191
    25.71231     0.04477     0.00193
    25.71231     0.04474     0.00193
    19.82164     0.04878     0.00172
    19.82164     0.04823     0.00174
    19.82164     0.04830     0.00173
    19.82164     0.04747     0.00177
    19.82164     0.04750     0.00177
    14.79105     0.08847     0.00062
    14.79105     0.08739     0.00065
    14.79105     0.08841     0.00062
    14.79105     0.08700     0.00067
    14.79105     0.08706     0.00068
    11.77949     0.15230    -0.00073
    11.77949     0.15015    -0.00072
    11.77949     0.15495    -0.00078
    11.77949     0.15374    -0.00080
    11.77949     0.15334    -0.00078
    50.97686     0.13771    -0.00025
    50.97686     0.13742    -0.00025
    50.97686     0.13904    -0.00029
    50.97686     0.13969    -0.00031
    50.97686     0.13951    -0.00031
    44.37662     0.15792    -0.00013
    44.37662     0.15866    -0.00014
    44.37662     0.16047    -0.00017
    44.37662     0.16402    -0.00023
    44.37662     0.16396    -0.00024
    37.86862     0.11920     0.00057
    37.86862     0.11958     0.00056
    37.86862     0.12000     0.00055
    37.86862     0.12149     0.00051
    37.86862     0.12118     0.00050
    31.51006     0.07321     0.00142
    31.51006     0.07313     0.00141
    31.51006     0.07313     0.00141
    31.51006     0.07335     0.00141
    31.51006     0.07331     0.00142
    25.41336     0.04542     0.00192
    25.41336     0.04502     0.00193
    25.41336     0.04502     0.00193
    25.41336     0.04455     0.00195
    25.41336     0.04456     0.00195
    19.82164     0.04878     0.00172
    19.82164     0.04823     0.00174
    19.82164     0.04830     0.00173
    19.82164     0.04747     0.00177
    19.82164     0.04750     0.00177
    15.29900     0.08565     0.00075
    15.29900     0.08488     0.00077
    15.29900     0.08550     0.00075
    15.29900     0.08455     0.00079
    15.29900     0.08459     0.00080
    57.10484     0.07991     0.00104
    57.10484     0.07965     0.00104
    57.10484     0.07965     0.00104
    57.10484     0.07938     0.00105
    57.10484     0.07929     0.00105
    50.52512     0.12430     0.00033
    50.52512     0.12488     0.00032
    50.52512     0.12488     0.00032
    50.52512     0.12645     0.00027
    50.52512     0.12614     0.00026
    44.03086     0.14380     0.00038
    44.03086     0.14518     0.00036
    44.03086     0.14518     0.00036
    44.03086     0.14887     0.00032
    44.03086     0.14870     0.00032
    37.66628     0.11585     0.00077
    37.66628     0.11650     0.00075
    37.66628     0.11650     0.00075
    37.66628     0.11867     0.00074
    37.66628     0.11894     0.00076
    31.51006     0.07321     0.00142
    31.51006     0.07313     0.00141
    31.51006     0.07313     0.00141
    31.51006     0.07335     0.00141
    31.51006     0.07331     0.00142
    25.71231     0.04565     0.00190
    25.71231     0.04527     0.00191
    25.71231     0.04527     0.00191
    25.71231     0.04477     0.00193
    25.71231     0.04474     0.00193
    20.57828     0.04766     0.00178
    20.57828     0.04720     0.00179
    20.57828     0.04720     0.00179
    20.57828     0.04653     0.00182
    20.57828     0.04652     0.00182
