#R dependence of bare Coulomb
#1:R [AA], 2:Re[V(R)] [eV], 3:Im[V(R)] [eV]
    20.57828     0.71089     0.00000
    20.57828     0.70926     0.00000
    20.57828     0.70926     0.00000
    20.57828     0.70520     0.00000
    20.57828     0.70546     0.00000
    25.71231     0.69413    -0.00000
    25.71231     0.69293    -0.00000
    25.71231     0.69293     0.00000
    25.71231     0.68952    -0.00000
    25.71231     0.68981     0.00000
    31.51006     0.83835    -0.00000
    31.51006     0.83866     0.00000
    31.51006     0.83866     0.00000
    31.51006     0.83757    -0.00000
    31.51006     0.83809     0.00000
    37.66628     1.04696    -0.00000
    37.66628     1.04988     0.00000
    37.66628     1.04988    -0.00000
    37.66628     1.05314    -0.00000
    37.66628     1.05444    -0.00000
    44.03086     1.17842     0.00000
    44.03086     1.18323    -0.00000
    44.03086     1.18323     0.00000
    44.03086     1.18990     0.00000
    44.03086     1.19255     0.00000
    50.52512     1.11774     0.00000
    50.52512     1.12074     0.00000
    50.52512     1.12074     0.00000
    50.52512     1.12402     0.00000
    50.52512     1.12516     0.00000
    57.10484     0.89556    -0.00000
    57.10484     0.89497    -0.00000
    57.10484     0.89497     0.00000
    57.10484     0.89239     0.00000
    57.10484     0.89273     0.00000
    15.29900     0.94000    -0.00000
    15.29900     0.93737    -0.00000
    15.29900     0.93938    -0.00000
    15.29900     0.93419    -0.00000
    15.29900     0.93439    -0.00000
    19.82164     0.71893     0.00000
    19.82164     0.71689     0.00000
    19.82164     0.71718    -0.00000
    19.82164     0.71261     0.00000
    19.82164     0.71285    -0.00000
    25.41336     0.69106    -0.00000
    25.41336     0.68998     0.00000
    25.41336     0.68984    -0.00000
    25.41336     0.68659     0.00000
    25.41336     0.68690    -0.00000
    31.51006     0.83835    -0.00000
    31.51006     0.83866    -0.00000
    31.51006     0.83866    -0.00000
    31.51006     0.83757     0.00000
    31.51006     0.83809     0.00000
    37.86862     1.07714    -0.00000
    37.86862     1.07921     0.00000
    37.86862     1.08105     0.00000
    37.86862     1.08347     0.00000
    37.86862     1.08466    -0.00000
    44.37662     1.26572     0.00000
    44.37662     1.26839    -0.00000
    44.37662     1.27438     0.00000
    44.37662     1.27973    -0.00000
    44.37662     1.28240     0.00000
    50.97686     1.21860     0.00000
    50.97686     1.21845    -0.00000
    50.97686     1.22462    -0.00000
    50.97686     1.22445    -0.00000
    50.97686     1.22514    -0.00000
    11.77949     1.31134     0.00000
    11.77949     1.30694    -0.00000
    11.77949     1.32134     0.00000
    11.77949     1.31648     0.00000
    11.77949     1.31604     0.00000
    14.79105     0.96097    -0.00000
    14.79105     0.95722    -0.00000
    14.79105     0.96033     0.00000
    14.79105     0.95373    -0.00000
    14.79105     0.95386    -0.00000
    19.82164     0.71893     0.00000
    19.82164     0.71689     0.00000
    19.82164     0.71718    -0.00000
    19.82164     0.71261    -0.00000
    19.82164     0.71285    -0.00000
    25.71231     0.69413    -0.00000
    25.71231     0.69293     0.00000
    25.71231     0.69293     0.00000
    25.71231     0.68952    -0.00000
    25.71231     0.68981     0.00000
    31.99144     0.86233    -0.00000
    31.99144     0.86175    -0.00000
    31.99144     0.86298     0.00000
    31.99144     0.86080    -0.00000
    31.99144     0.86122    -0.00000
    38.46927     1.14863     0.00000
    38.46927     1.14829    -0.00000
    38.46927     1.15523     0.00000
    38.46927     1.15533     0.00000
    38.46927     1.15600    -0.00000
    45.06019     1.38803    -0.00000
    45.06019     1.38623    -0.00000
    45.06019     1.40402     0.00000
    45.06019     1.40680     0.00000
    45.06019     1.40738     0.00000
    11.72847     1.44838    -0.00000
    11.72847     1.44342     0.00000
    11.72847     1.46892    -0.00000
    11.72847     1.47113    -0.00000
    11.72847     1.46818    -0.00000
    11.77949     1.31134    -0.00000
    11.77949     1.30694     0.00000
    11.77949     1.32134     0.00000
    11.77949     1.31648    -0.00000
    11.77949     1.31604    -0.00000
    15.29899     0.94000    -0.00000
    15.29899     0.93737     0.00000
    15.29899     0.93938     0.00000
    15.29899     0.93419     0.00000
    15.29899     0.93439    -0.00000
    20.57828     0.71089    -0.00000
    20.57828     0.70926    -0.00000
    20.57828     0.70926    -0.00000
    20.57828     0.70520     0.00000
    20.57828     0.70546    -0.00000
    26.58901     0.70117     0.00000
    26.58901     0.69967     0.00000
    26.58901     0.69999     0.00000
    26.58901     0.69620     0.00000
    26.58901     0.69647    -0.00000
    32.93309     0.89335    -0.00000
    32.93309     0.89148    -0.00000
    32.93309     0.89449    -0.00000
    32.93309     0.89076     0.00000
    32.93309     0.89102     0.00000
    39.45003     1.20998     0.00000
    39.45003     1.20714     0.00000
    39.45003     1.21940     0.00000
    39.45003     1.21710    -0.00000
    39.45003     1.21694     0.00000
    15.18094     1.20998    -0.00000
    15.18094     1.20714     0.00000
    15.18094     1.21940     0.00000
    15.18094     1.21710     0.00000
    15.18094     1.21694    -0.00000
    12.36289     1.38803     0.00000
    12.36289     1.38623    -0.00000
    12.36289     1.40402     0.00000
    12.36289     1.40680     0.00000
    12.36289     1.40738    -0.00000
    13.01248     1.21860    -0.00000
    13.01248     1.21845     0.00000
    13.01248     1.22462    -0.00000
    13.01248     1.22445    -0.00000
    13.01248     1.22514    -0.00000
    16.73056     0.89556     0.00000
    16.73056     0.89497     0.00000
    16.73056     0.89497     0.00000
    16.73056     0.89239    -0.00000
    16.73056     0.89273    -0.00000
    22.01368     0.70117    -0.00000
    22.01368     0.69999     0.00000
    22.01368     0.69967    -0.00000
    22.01368     0.69620    -0.00000
    22.01368     0.69647     0.00000
    27.98921     0.70695    -0.00000
    27.98921     0.70518    -0.00000
    27.98921     0.70579     0.00000
    27.98921     0.70167    -0.00000
    27.98921     0.70192    -0.00000
    34.29713     0.90758     0.00000
    34.29713     0.90507    -0.00000
    34.29713     0.90896     0.00000
    34.29713     0.90446     0.00000
    34.29713     0.90463     0.00000
    20.43204     0.89335     0.00000
    20.43204     0.89148    -0.00000
    20.43204     0.89449     0.00000
    20.43204     0.89076    -0.00000
    20.43204     0.89102    -0.00000
    16.15640     1.14863    -0.00000
    16.15640     1.14829    -0.00000
    16.15640     1.15523     0.00000
    16.15640     1.15533    -0.00000
    16.15640     1.15600     0.00000
    14.09586     1.26572    -0.00000
    14.09586     1.26839     0.00000
    14.09586     1.27438    -0.00000
    14.09586     1.27973    -0.00000
    14.09586     1.28240     0.00000
    15.18094     1.11774     0.00000
    15.18094     1.12074     0.00000
    15.18094     1.12074     0.00000
    15.18094     1.12402     0.00000
    15.18094     1.12516     0.00000
    18.87676     0.86233    -0.00000
    18.87676     0.86298     0.00000
    18.87676     0.86175     0.00000
    18.87676     0.86080     0.00000
    18.87676     0.86122    -0.00000
    24.00639     0.69695     0.00000
    24.00639     0.69595    -0.00000
    24.00639     0.69550     0.00000
    24.00639     0.69227     0.00000
    24.00639     0.69255     0.00000
    29.83931     0.70695    -0.00000
    29.83931     0.70518    -0.00000
    29.83931     0.70579    -0.00000
    29.83931     0.70167    -0.00000
    29.83931     0.70192    -0.00000
    26.43065     0.70117     0.00000
    26.43065     0.69967     0.00000
    26.43065     0.69999     0.00000
    26.43065     0.69620     0.00000
    26.43065     0.69647     0.00000
    21.52489     0.86233    -0.00000
    21.52489     0.86175     0.00000
    21.52489     0.86298    -0.00000
    21.52489     0.86080     0.00000
    21.52489     0.86122    -0.00000
    17.94897     1.07714     0.00000
    17.94897     1.07921     0.00000
    17.94897     1.08105     0.00000
    17.94897     1.08347     0.00000
    17.94897     1.08466     0.00000
    16.58655     1.17842    -0.00000
    16.58655     1.18323    -0.00000
    16.58655     1.18323     0.00000
    16.58655     1.18990     0.00000
    16.58655     1.19255     0.00000
    17.94897     1.07714    -0.00000
    17.94897     1.08105     0.00000
    17.94897     1.07921    -0.00000
    17.94897     1.08347    -0.00000
    17.94897     1.08466    -0.00000
    21.52489     0.86233    -0.00000
    21.52489     0.86298     0.00000
    21.52489     0.86175     0.00000
    21.52489     0.86080    -0.00000
    21.52489     0.86122    -0.00000
    26.43065     0.70117    -0.00000
    26.43065     0.69999    -0.00000
    26.43065     0.69967    -0.00000
    26.43065     0.69620    -0.00000
    26.43065     0.69647     0.00000
    15.29900     0.94000     0.00000
    15.29900     0.93938    -0.00000
    15.29900     0.93737     0.00000
    15.29900     0.93419     0.00000
    15.29900     0.93439     0.00000
    19.82164     0.71893    -0.00000
    19.82164     0.71718    -0.00000
    19.82164     0.71689    -0.00000
    19.82164     0.71261     0.00000
    19.82164     0.71285     0.00000
    25.41336     0.69106     0.00000
    25.41336     0.68984     0.00000
    25.41336     0.68998    -0.00000
    25.41336     0.68659     0.00000
    25.41336     0.68690     0.00000
    31.51006     0.83835     0.00000
    31.51006     0.83866    -0.00000
    31.51006     0.83866    -0.00000
    31.51006     0.83757     0.00000
    31.51006     0.83809    -0.00000
    37.86862     1.07714    -0.00000
    37.86862     1.08105    -0.00000
    37.86862     1.07921    -0.00000
    37.86862     1.08347    -0.00000
    37.86862     1.08466    -0.00000
    44.37662     1.26572     0.00000
    44.37662     1.27438    -0.00000
    44.37662     1.26839     0.00000
    44.37662     1.27973    -0.00000
    44.37662     1.28240     0.00000
    50.97686     1.21860     0.00000
    50.97686     1.22462    -0.00000
    50.97686     1.21845     0.00000
    50.97686     1.22445    -0.00000
    50.97686     1.22514    -0.00000
    10.40135     1.41284    -0.00000
    10.40135     1.41404    -0.00000
    10.40135     1.41404    -0.00000
    10.40135     1.41309     0.00000
    10.40135     1.41358     0.00000
    13.71885     1.00496     0.00000
    13.71885     1.00093     0.00000
    13.71885     1.00093     0.00000
    13.71885     0.99338    -0.00000
    13.71885     0.99353    -0.00000
    19.03495     0.72889     0.00000
    19.03495     0.72660     0.00000
    19.03495     0.72660    -0.00000
    19.03495     0.72163    -0.00000
    19.03495     0.72187    -0.00000
    25.11085     0.68848    -0.00000
    25.11085     0.68736     0.00000
    25.11085     0.68736    -0.00000
    25.11085     0.68409    -0.00000
    25.11085     0.68441    -0.00000
    31.51006     0.83835     0.00000
    31.51006     0.83866    -0.00000
    31.51006     0.83866     0.00000
    31.51006     0.83757    -0.00000
    31.51006     0.83809     0.00000
    38.06989     1.11774    -0.00000
    38.06989     1.12074     0.00000
    38.06989     1.12074    -0.00000
    38.06989     1.12402     0.00000
    38.06989     1.12516    -0.00000
    44.71971     1.43278    -0.00000
    44.71971     1.44044    -0.00000
    44.71971     1.44044     0.00000
    44.71971     1.45284     0.00000
    44.71971     1.45825     0.00000
     8.74188     1.71996     0.00000
     8.74188     1.71787    -0.00000
     8.74188     1.74609    -0.00000
     8.74188     1.75565    -0.00000
     8.74188     1.76060     0.00000
     8.81022     1.62624    -0.00000
     8.81022     1.61455     0.00000
     8.81022     1.63144     0.00000
     8.81022     1.61348    -0.00000
     8.81022     1.61252     0.00000
    13.15001     1.03679     0.00000
    13.15001     1.03062    -0.00000
    13.15001     1.03189    -0.00000
    13.15001     1.02176     0.00000
    13.15001     1.02190    -0.00000
    19.03495     0.72889    -0.00000
    19.03495     0.72660    -0.00000
    19.03495     0.72660     0.00000
    19.03495     0.72163     0.00000
    19.03495     0.72187     0.00000
    25.41336     0.69106     0.00000
    25.41336     0.68984    -0.00000
    25.41336     0.68998     0.00000
    25.41336     0.68659     0.00000
    25.41336     0.68690     0.00000
    31.99144     0.86233     0.00000
    31.99144     0.86175    -0.00000
    31.99144     0.86298    -0.00000
    31.99144     0.86080    -0.00000
    31.99144     0.86122     0.00000
    38.66741     1.21860     0.00000
    38.66741     1.21845     0.00000
    38.66741     1.22462    -0.00000
    38.66741     1.22445    -0.00000
    38.66741     1.22514    -0.00000
    11.77949     1.31134    -0.00000
    11.77949     1.30694     0.00000
    11.77949     1.32134    -0.00000
    11.77949     1.31648     0.00000
    11.77949     1.31604     0.00000
     7.81898     1.89351     0.00000
     7.81898     1.87751    -0.00000
     7.81898     1.94076     0.00000
     7.81898     1.94908     0.00000
     7.81898     1.93531    -0.00000
     8.81022     1.62624    -0.00000
     8.81022     1.61455    -0.00000
     8.81022     1.63144     0.00000
     8.81022     1.61348     0.00000
     8.81022     1.61252    -0.00000
    13.71885     1.00496     0.00000
    13.71885     1.00093    -0.00000
    13.71885     1.00093     0.00000
    13.71885     0.99338     0.00000
    13.71885     0.99353    -0.00000
    19.82164     0.71893    -0.00000
    19.82164     0.71718    -0.00000
    19.82164     0.71689    -0.00000
    19.82164     0.71261    -0.00000
    19.82164     0.71285    -0.00000
    26.30002     0.69695     0.00000
    26.30002     0.69550    -0.00000
    26.30002     0.69595    -0.00000
    26.30002     0.69227    -0.00000
    26.30002     0.69255     0.00000
    32.93309     0.89335    -0.00000
    32.93309     0.89148     0.00000
    32.93309     0.89449    -0.00000
    32.93309     0.89076     0.00000
    32.93309     0.89102     0.00000
    17.18126     0.90758     0.00000
    17.18126     0.90507    -0.00000
    17.18126     0.90896    -0.00000
    17.18126     0.90446    -0.00000
    17.18126     0.90463     0.00000
    11.77949     1.31134    -0.00000
    11.77949     1.30694     0.00000
    11.77949     1.32134     0.00000
    11.77949     1.31648    -0.00000
    11.77949     1.31604     0.00000
     8.74188     1.71997     0.00000
     8.74188     1.71787    -0.00000
     8.74188     1.74609     0.00000
     8.74188     1.75565    -0.00000
     8.74188     1.76060     0.00000
    10.40135     1.41284     0.00000
    10.40135     1.41404    -0.00000
    10.40135     1.41404     0.00000
    10.40135     1.41309     0.00000
    10.40135     1.41358    -0.00000
    15.29899     0.94000     0.00000
    15.29899     0.93938    -0.00000
    15.29899     0.93737    -0.00000
    15.29899     0.93419     0.00000
    15.29899     0.93439     0.00000
    21.30807     0.70695    -0.00000
    21.30807     0.70579    -0.00000
    21.30807     0.70518     0.00000
    21.30807     0.70167     0.00000
    21.30807     0.70192     0.00000
    27.71483     0.70176     0.00000
    27.71483     0.70011    -0.00000
    27.71483     0.70084    -0.00000
    27.71483     0.69691    -0.00000
    27.71483     0.69716     0.00000
    23.36104     0.70176    -0.00000
    23.36104     0.70011     0.00000
    23.36104     0.70084     0.00000
    23.36104     0.69691     0.00000
    23.36104     0.69716     0.00000
    17.62043     0.89335     0.00000
    17.62043     0.89148    -0.00000
    17.62043     0.89449     0.00000
    17.62043     0.89076     0.00000
    17.62043     0.89102    -0.00000
    13.01248     1.21860    -0.00000
    13.01248     1.21845     0.00000
    13.01248     1.22462    -0.00000
    13.01248     1.22445     0.00000
    13.01248     1.22514     0.00000
    11.05770     1.43278     0.00000
    11.05770     1.44045     0.00000
    11.05770     1.44045     0.00000
    11.05770     1.45284     0.00000
    11.05770     1.45825     0.00000
    13.01248     1.21860    -0.00000
    13.01248     1.22462    -0.00000
    13.01248     1.21845    -0.00000
    13.01248     1.22445    -0.00000
    13.01248     1.22514     0.00000
    17.62043     0.89335    -0.00000
    17.62043     0.89449     0.00000
    17.62043     0.89148    -0.00000
    17.62043     0.89076    -0.00000
    17.62043     0.89102     0.00000
    23.36104     0.70176     0.00000
    23.36104     0.70084     0.00000
    23.36104     0.70011    -0.00000
    23.36104     0.69691    -0.00000
    23.36104     0.69716     0.00000
    29.83931     0.70695    -0.00000
    29.83931     0.70579    -0.00000
    29.83931     0.70518    -0.00000
    29.83931     0.70167    -0.00000
    29.83931     0.70192    -0.00000
    24.00639     0.69695     0.00000
    24.00639     0.69550     0.00000
    24.00639     0.69595     0.00000
    24.00639     0.69227    -0.00000
    24.00639     0.69255     0.00000
    18.87676     0.86233    -0.00000
    18.87676     0.86175    -0.00000
    18.87676     0.86298     0.00000
    18.87676     0.86080    -0.00000
    18.87676     0.86122     0.00000
    15.18094     1.11774     0.00000
    15.18094     1.12074    -0.00000
    15.18094     1.12074     0.00000
    15.18094     1.12402    -0.00000
    15.18094     1.12516     0.00000
    14.09586     1.26572    -0.00000
    14.09586     1.27438    -0.00000
    14.09586     1.26839    -0.00000
    14.09586     1.27973     0.00000
    14.09586     1.28240    -0.00000
    16.15640     1.14863    -0.00000
    16.15640     1.15523     0.00000
    16.15640     1.14829    -0.00000
    16.15640     1.15533     0.00000
    16.15640     1.15600     0.00000
    20.43204     0.89335     0.00000
    20.43204     0.89449    -0.00000
    20.43204     0.89148     0.00000
    20.43204     0.89076     0.00000
    20.43204     0.89102    -0.00000
    11.77949     1.31134    -0.00000
    11.77949     1.32134     0.00000
    11.77949     1.30694    -0.00000
    11.77949     1.31648     0.00000
    11.77949     1.31604    -0.00000
    14.79105     0.96097     0.00000
    14.79105     0.96033    -0.00000
    14.79105     0.95722     0.00000
    14.79105     0.95373    -0.00000
    14.79105     0.95386    -0.00000
    19.82164     0.71893    -0.00000
    19.82164     0.71718     0.00000
    19.82164     0.71689    -0.00000
    19.82164     0.71261    -0.00000
    19.82164     0.71285     0.00000
    25.71231     0.69413     0.00000
    25.71231     0.69293    -0.00000
    25.71231     0.69293     0.00000
    25.71231     0.68952    -0.00000
    25.71231     0.68981     0.00000
    31.99144     0.86233    -0.00000
    31.99144     0.86298    -0.00000
    31.99144     0.86175    -0.00000
    31.99144     0.86080    -0.00000
    31.99144     0.86122     0.00000
    38.46927     1.14863    -0.00000
    38.46927     1.15523    -0.00000
    38.46927     1.14829    -0.00000
    38.46927     1.15533     0.00000
    38.46927     1.15600     0.00000
    45.06019     1.38803     0.00000
    45.06019     1.40402    -0.00000
    45.06019     1.38623    -0.00000
    45.06019     1.40680     0.00000
    45.06019     1.40738    -0.00000
     8.74188     1.71996     0.00000
     8.74188     1.74609     0.00000
     8.74188     1.71787    -0.00000
     8.74188     1.75565    -0.00000
     8.74188     1.76060     0.00000
     8.81022     1.62624     0.00000
     8.81022     1.63144     0.00000
     8.81022     1.61455     0.00000
     8.81022     1.61348     0.00000
     8.81022     1.61252     0.00000
    13.15001     1.03679    -0.00000
    13.15001     1.03189     0.00000
    13.15001     1.03062    -0.00000
    13.15001     1.02176     0.00000
    13.15001     1.02190     0.00000
    19.03495     0.72889     0.00000
    19.03495     0.72660     0.00000
    19.03495     0.72660     0.00000
    19.03495     0.72163     0.00000
    19.03495     0.72187     0.00000
    25.41336     0.69106    -0.00000
    25.41336     0.68998     0.00000
    25.41336     0.68984     0.00000
    25.41336     0.68659     0.00000
    25.41336     0.68690    -0.00000
    31.99144     0.86233     0.00000
    31.99144     0.86298     0.00000
    31.99144     0.86175    -0.00000
    31.99144     0.86080     0.00000
    31.99144     0.86122     0.00000
    38.66741     1.21860    -0.00000
    38.66741     1.22462     0.00000
    38.66741     1.21845    -0.00000
    38.66741     1.22445    -0.00000
    38.66741     1.22514     0.00000
    10.40135     1.41284     0.00000
    10.40135     1.41404     0.00000
    10.40135     1.41404    -0.00000
    10.40135     1.41309     0.00000
    10.40135     1.41358     0.00000
     5.52885     2.57539    -0.00000
     5.52885     2.59577     0.00000
     5.52885     2.59577    -0.00000
     5.52885     2.67958     0.00000
     5.52885     2.69815     0.00000
     6.85943     2.06711     0.00000
     6.85943     2.03002    -0.00000
     6.85943     2.03002    -0.00000
     6.85943     1.98032     0.00000
     6.85943     1.97965    -0.00000
    12.55543     1.07467    -0.00000
    12.55543     1.06688    -0.00000
    12.55543     1.06688    -0.00000
    12.55543     1.05475    -0.00000
    12.55543     1.05492    -0.00000
    19.03495     0.72889     0.00000
    19.03495     0.72660     0.00000
    19.03495     0.72660    -0.00000
    19.03495     0.72163    -0.00000
    19.03495     0.72187    -0.00000
    25.71231     0.69413     0.00000
    25.71231     0.69293     0.00000
    25.71231     0.69293    -0.00000
    25.71231     0.68952    -0.00000
    25.71231     0.68981     0.00000
    32.46568     0.89556     0.00000
    32.46568     0.89497     0.00000
    32.46568     0.89497     0.00000
    32.46568     0.89239     0.00000
    32.46568     0.89273     0.00000
    15.29899     0.94000     0.00000
    15.29899     0.93737    -0.00000
    15.29899     0.93938     0.00000
    15.29899     0.93419    -0.00000
    15.29899     0.93439     0.00000
     8.81022     1.62624     0.00000
     8.81022     1.61455     0.00000
     8.81022     1.63144     0.00000
     8.81022     1.61348    -0.00000
     8.81022     1.61252     0.00000
     3.90949     3.58660    -0.00000
     3.90949     3.47502    -0.00000
     3.90949     3.74027    -0.00000
     3.90949     3.89700    -0.00000
     3.90949     3.81969    -0.00000
     6.85943     2.06711     0.00000
     6.85943     2.03002     0.00000
     6.85943     2.03002    -0.00000
     6.85943     1.98033     0.00000
     6.85943     1.97965     0.00000
    13.15001     1.03679    -0.00000
    13.15001     1.03189     0.00000
    13.15001     1.03062    -0.00000
    13.15001     1.02176     0.00000
    13.15001     1.02190     0.00000
    19.82164     0.71893    -0.00000
    19.82164     0.71718     0.00000
    19.82164     0.71689    -0.00000
    19.82164     0.71261     0.00000
    19.82164     0.71285    -0.00000
    26.58901     0.70117     0.00000
    26.58901     0.69967    -0.00000
    26.58901     0.69999    -0.00000
    26.58901     0.69620     0.00000
    26.58901     0.69647     0.00000
    21.30807     0.70695    -0.00000
    21.30807     0.70518     0.00000
    21.30807     0.70579    -0.00000
    21.30807     0.70167     0.00000
    21.30807     0.70192     0.00000
    14.79105     0.96097     0.00000
    14.79105     0.95722    -0.00000
    14.79105     0.96033     0.00000
    14.79105     0.95373     0.00000
    14.79105     0.95386     0.00000
     8.81022     1.62624    -0.00000
     8.81022     1.61455     0.00000
     8.81022     1.63144    -0.00000
     8.81022     1.61348     0.00000
     8.81022     1.61252    -0.00000
     5.52885     2.57539    -0.00000
     5.52885     2.59577     0.00000
     5.52885     2.59577     0.00000
     5.52885     2.67958     0.00000
     5.52885     2.69815    -0.00000
     8.81022     1.62624     0.00000
     8.81022     1.63144     0.00000
     8.81022     1.61455     0.00000
     8.81022     1.61348    -0.00000
     8.81022     1.61252    -0.00000
    14.79105     0.96097     0.00000
    14.79105     0.96033    -0.00000
    14.79105     0.95722     0.00000
    14.79105     0.95373    -0.00000
    14.79105     0.95386     0.00000
    21.30807     0.70695     0.00000
    21.30807     0.70579    -0.00000
    21.30807     0.70518    -0.00000
    21.30807     0.70167    -0.00000
    21.30807     0.70192    -0.00000
    27.71483     0.70176     0.00000
    27.71483     0.70084     0.00000
    27.71483     0.70011    -0.00000
    27.71483     0.69691     0.00000
    27.71483     0.69716    -0.00000
    21.30807     0.70695    -0.00000
    21.30807     0.70518     0.00000
    21.30807     0.70579    -0.00000
    21.30807     0.70167    -0.00000
    21.30807     0.70192     0.00000
    15.29899     0.94000    -0.00000
    15.29899     0.93737     0.00000
    15.29899     0.93938    -0.00000
    15.29899     0.93419    -0.00000
    15.29899     0.93439     0.00000
    10.40135     1.41284     0.00000
    10.40135     1.41404     0.00000
    10.40135     1.41404    -0.00000
    10.40135     1.41309    -0.00000
    10.40135     1.41358     0.00000
     8.74188     1.71997    -0.00000
     8.74188     1.74609    -0.00000
     8.74188     1.71787     0.00000
     8.74188     1.75565     0.00000
     8.74188     1.76060     0.00000
    11.77949     1.31134     0.00000
    11.77949     1.32134    -0.00000
    11.77949     1.30694     0.00000
    11.77949     1.31648     0.00000
    11.77949     1.31604     0.00000
    17.18126     0.90758    -0.00000
    17.18126     0.90896    -0.00000
    17.18126     0.90507     0.00000
    17.18126     0.90446     0.00000
    17.18126     0.90463    -0.00000
    34.29713     0.90758     0.00000
    34.29713     0.90896     0.00000
    34.29713     0.90507     0.00000
    34.29713     0.90446    -0.00000
    34.29713     0.90463     0.00000
    27.98921     0.70695    -0.00000
    27.98921     0.70579    -0.00000
    27.98921     0.70518    -0.00000
    27.98921     0.70167     0.00000
    27.98921     0.70192    -0.00000
    22.01368     0.70117     0.00000
    22.01368     0.69967     0.00000
    22.01368     0.69999    -0.00000
    22.01368     0.69620     0.00000
    22.01368     0.69647     0.00000
    16.73056     0.89556    -0.00000
    16.73056     0.89497    -0.00000
    16.73056     0.89497    -0.00000
    16.73056     0.89239     0.00000
    16.73056     0.89273    -0.00000
    13.01248     1.21860     0.00000
    13.01248     1.22462     0.00000
    13.01248     1.21845     0.00000
    13.01248     1.22445     0.00000
    13.01248     1.22514     0.00000
    12.36289     1.38803    -0.00000
    12.36289     1.40402     0.00000
    12.36289     1.38623    -0.00000
    12.36289     1.40680    -0.00000
    12.36289     1.40738     0.00000
    15.18094     1.20998     0.00000
    15.18094     1.21940     0.00000
    15.18094     1.20714    -0.00000
    15.18094     1.21710    -0.00000
    15.18094     1.21694     0.00000
    11.72847     1.44838     0.00000
    11.72847     1.46892     0.00000
    11.72847     1.44342    -0.00000
    11.72847     1.47113    -0.00000
    11.72847     1.46818     0.00000
    11.77949     1.31134    -0.00000
    11.77949     1.32134     0.00000
    11.77949     1.30694    -0.00000
    11.77949     1.31648    -0.00000
    11.77949     1.31604     0.00000
    15.29899     0.94000     0.00000
    15.29899     0.93938    -0.00000
    15.29899     0.93737     0.00000
    15.29899     0.93419     0.00000
    15.29899     0.93439     0.00000
    20.57828     0.71089    -0.00000
    20.57828     0.70926     0.00000
    20.57828     0.70926     0.00000
    20.57828     0.70520     0.00000
    20.57828     0.70546    -0.00000
    26.58901     0.70117     0.00000
    26.58901     0.69999    -0.00000
    26.58901     0.69967    -0.00000
    26.58901     0.69620     0.00000
    26.58901     0.69647     0.00000
    32.93309     0.89335     0.00000
    32.93309     0.89449    -0.00000
    32.93309     0.89148    -0.00000
    32.93309     0.89076    -0.00000
    32.93309     0.89102    -0.00000
    39.45003     1.20998    -0.00000
    39.45003     1.21940    -0.00000
    39.45003     1.20714    -0.00000
    39.45003     1.21710    -0.00000
    39.45003     1.21694     0.00000
    11.77949     1.31134     0.00000
    11.77949     1.32134     0.00000
    11.77949     1.30694     0.00000
    11.77949     1.31648     0.00000
    11.77949     1.31604    -0.00000
     7.81898     1.89351     0.00000
     7.81898     1.94076    -0.00000
     7.81898     1.87751    -0.00000
     7.81898     1.94908     0.00000
     7.81898     1.93531     0.00000
     8.81022     1.62624    -0.00000
     8.81022     1.63144    -0.00000
     8.81022     1.61455    -0.00000
     8.81022     1.61348    -0.00000
     8.81022     1.61252    -0.00000
    13.71885     1.00496    -0.00000
    13.71885     1.00093    -0.00000
    13.71885     1.00093     0.00000
    13.71885     0.99338    -0.00000
    13.71885     0.99353    -0.00000
    19.82164     0.71893     0.00000
    19.82164     0.71689     0.00000
    19.82164     0.71718    -0.00000
    19.82164     0.71261    -0.00000
    19.82164     0.71285    -0.00000
    26.30002     0.69695    -0.00000
    26.30002     0.69595    -0.00000
    26.30002     0.69550    -0.00000
    26.30002     0.69227    -0.00000
    26.30002     0.69255    -0.00000
    32.93309     0.89335     0.00000
    32.93309     0.89449     0.00000
    32.93309     0.89148     0.00000
    32.93309     0.89076     0.00000
    32.93309     0.89102    -0.00000
    15.29899     0.94000    -0.00000
    15.29899     0.93938     0.00000
    15.29899     0.93737    -0.00000
    15.29899     0.93419    -0.00000
    15.29899     0.93439    -0.00000
     8.81022     1.62624    -0.00000
     8.81022     1.63144     0.00000
     8.81022     1.61455    -0.00000
     8.81022     1.61348    -0.00000
     8.81022     1.61252     0.00000
     3.90949     3.58660    -0.00000
     3.90949     3.74027     0.00000
     3.90949     3.47502    -0.00000
     3.90949     3.89700    -0.00000
     3.90949     3.81969    -0.00000
     6.85943     2.06711     0.00000
     6.85943     2.03002     0.00000
     6.85943     2.03002     0.00000
     6.85943     1.98033     0.00000
     6.85943     1.97965     0.00000
    13.15001     1.03679    -0.00000
    13.15001     1.03062    -0.00000
    13.15001     1.03189     0.00000
    13.15001     1.02176     0.00000
    13.15001     1.02190     0.00000
    19.82164     0.71893     0.00000
    19.82164     0.71689     0.00000
    19.82164     0.71718    -0.00000
    19.82164     0.71261     0.00000
    19.82164     0.71285     0.00000
    26.58901     0.70117    -0.00000
    26.58901     0.69999     0.00000
    26.58901     0.69967    -0.00000
    26.58901     0.69620     0.00000
    26.58901     0.69647    -0.00000
    20.57828     0.71089     0.00000
    20.57828     0.70926    -0.00000
    20.57828     0.70926     0.00000
    20.57828     0.70520     0.00000
    20.57828     0.70546     0.00000
    13.71885     1.00496    -0.00000
    13.71885     1.00093    -0.00000
    13.71885     1.00093     0.00000
    13.71885     0.99338     0.00000
    13.71885     0.99353     0.00000
     6.85943     2.06711     0.00000
     6.85943     2.03002     0.00000
     6.85943     2.03002    -0.00000
     6.85943     1.98033     0.00000
     6.85943     1.97965    -0.00000
     0.00000    13.06169     0.00000
     0.00000    13.15958     0.00000
     0.00000    13.15958     0.00000
     0.00000    14.78111     0.00000
     0.00000    15.21805     0.00000
     6.85943     2.06711    -0.00000
     6.85943     2.03002    -0.00000
     6.85943     2.03002     0.00000
     6.85943     1.98033    -0.00000
     6.85943     1.97965     0.00000
    13.71885     1.00496     0.00000
    13.71885     1.00093    -0.00000
    13.71885     1.00093    -0.00000
    13.71885     0.99338    -0.00000
    13.71885     0.99353     0.00000
    20.57828     0.71089    -0.00000
    20.57828     0.70926     0.00000
    20.57828     0.70926    -0.00000
    20.57828     0.70520    -0.00000
    20.57828     0.70546    -0.00000
    26.58901     0.70117    -0.00000
    26.58901     0.69999    -0.00000
    26.58901     0.69967     0.00000
    26.58901     0.69620     0.00000
    26.58901     0.69647     0.00000
    19.82164     0.71893    -0.00000
    19.82164     0.71689    -0.00000
    19.82164     0.71718     0.00000
    19.82164     0.71261    -0.00000
    19.82164     0.71285    -0.00000
    13.15001     1.03679     0.00000
    13.15001     1.03062     0.00000
    13.15001     1.03189     0.00000
    13.15001     1.02176    -0.00000
    13.15001     1.02190    -0.00000
     6.85943     2.06711    -0.00000
     6.85943     2.03002    -0.00000
     6.85943     2.03002    -0.00000
     6.85943     1.98033    -0.00000
     6.85943     1.97965    -0.00000
     3.90949     3.58660     0.00000
     3.90949     3.74027     0.00000
     3.90949     3.47502     0.00000
     3.90949     3.89700     0.00000
     3.90949     3.81969     0.00000
     8.81022     1.62624    -0.00000
     8.81022     1.63144     0.00000
     8.81022     1.61455    -0.00000
     8.81022     1.61348     0.00000
     8.81022     1.61252    -0.00000
    15.29899     0.94000     0.00000
    15.29899     0.93938    -0.00000
    15.29899     0.93737    -0.00000
    15.29899     0.93419     0.00000
    15.29899     0.93439     0.00000
    32.93309     0.89335    -0.00000
    32.93309     0.89449    -0.00000
    32.93309     0.89148    -0.00000
    32.93309     0.89076    -0.00000
    32.93309     0.89102     0.00000
    26.30002     0.69695     0.00000
    26.30002     0.69595    -0.00000
    26.30002     0.69550     0.00000
    26.30002     0.69227     0.00000
    26.30002     0.69255     0.00000
    19.82164     0.71893    -0.00000
    19.82164     0.71689    -0.00000
    19.82164     0.71718    -0.00000
    19.82164     0.71261     0.00000
    19.82164     0.71285     0.00000
    13.71885     1.00496     0.00000
    13.71885     1.00093     0.00000
    13.71885     1.00093     0.00000
    13.71885     0.99338     0.00000
    13.71885     0.99353     0.00000
     8.81022     1.62624     0.00000
     8.81022     1.63144    -0.00000
     8.81022     1.61455    -0.00000
     8.81022     1.61348     0.00000
     8.81022     1.61252     0.00000
     7.81898     1.89351     0.00000
     7.81898     1.94076     0.00000
     7.81898     1.87751     0.00000
     7.81898     1.94908    -0.00000
     7.81898     1.93531    -0.00000
    11.77949     1.31134    -0.00000
    11.77949     1.32134    -0.00000
    11.77949     1.30694    -0.00000
    11.77949     1.31648    -0.00000
    11.77949     1.31604     0.00000
    39.45003     1.20998     0.00000
    39.45003     1.21940    -0.00000
    39.45003     1.20714    -0.00000
    39.45003     1.21710     0.00000
    39.45003     1.21694    -0.00000
    32.93309     0.89335     0.00000
    32.93309     0.89449     0.00000
    32.93309     0.89148     0.00000
    32.93309     0.89076     0.00000
    32.93309     0.89102     0.00000
    26.58901     0.70117     0.00000
    26.58901     0.69999    -0.00000
    26.58901     0.69967     0.00000
    26.58901     0.69620    -0.00000
    26.58901     0.69647     0.00000
    20.57828     0.71089     0.00000
    20.57828     0.70926    -0.00000
    20.57828     0.70926    -0.00000
    20.57828     0.70520    -0.00000
    20.57828     0.70546     0.00000
    15.29899     0.94000     0.00000
    15.29899     0.93938     0.00000
    15.29899     0.93737    -0.00000
    15.29899     0.93419    -0.00000
    15.29899     0.93439    -0.00000
    11.77949     1.31134     0.00000
    11.77949     1.32134    -0.00000
    11.77949     1.30694     0.00000
    11.77949     1.31648    -0.00000
    11.77949     1.31604    -0.00000
    11.72847     1.44838    -0.00000
    11.72847     1.46892    -0.00000
    11.72847     1.44342     0.00000
    11.72847     1.47113     0.00000
    11.72847     1.46818    -0.00000
    15.18094     1.20998    -0.00000
    15.18094     1.21940    -0.00000
    15.18094     1.20714    -0.00000
    15.18094     1.21710     0.00000
    15.18094     1.21694    -0.00000
    12.36289     1.38803     0.00000
    12.36289     1.40402    -0.00000
    12.36289     1.38623    -0.00000
    12.36289     1.40680     0.00000
    12.36289     1.40738    -0.00000
    13.01248     1.21860    -0.00000
    13.01248     1.22462     0.00000
    13.01248     1.21845     0.00000
    13.01248     1.22445    -0.00000
    13.01248     1.22514    -0.00000
    16.73056     0.89556     0.00000
    16.73056     0.89497    -0.00000
    16.73056     0.89497    -0.00000
    16.73056     0.89239    -0.00000
    16.73056     0.89273     0.00000
    22.01368     0.70117    -0.00000
    22.01368     0.69967     0.00000
    22.01368     0.69999    -0.00000
    22.01368     0.69620    -0.00000
    22.01368     0.69647    -0.00000
    27.98921     0.70695     0.00000
    27.98921     0.70579    -0.00000
    27.98921     0.70518     0.00000
    27.98921     0.70167    -0.00000
    27.98921     0.70192     0.00000
    34.29713     0.90758     0.00000
    34.29713     0.90896    -0.00000
    34.29713     0.90507    -0.00000
    34.29713     0.90446     0.00000
    34.29713     0.90463    -0.00000
    17.18126     0.90758     0.00000
    17.18126     0.90896    -0.00000
    17.18126     0.90507    -0.00000
    17.18126     0.90446    -0.00000
    17.18126     0.90463     0.00000
    11.77949     1.31134    -0.00000
    11.77949     1.32134    -0.00000
    11.77949     1.30694     0.00000
    11.77949     1.31648    -0.00000
    11.77949     1.31604    -0.00000
     8.74188     1.71997     0.00000
     8.74188     1.74609    -0.00000
     8.74188     1.71787    -0.00000
     8.74188     1.75565    -0.00000
     8.74188     1.76060    -0.00000
    10.40135     1.41284     0.00000
    10.40135     1.41404     0.00000
    10.40135     1.41404    -0.00000
    10.40135     1.41309     0.00000
    10.40135     1.41358    -0.00000
    15.29899     0.94000    -0.00000
    15.29899     0.93737    -0.00000
    15.29899     0.93938    -0.00000
    15.29899     0.93419     0.00000
    15.29899     0.93439     0.00000
    21.30807     0.70695     0.00000
    21.30807     0.70518     0.00000
    21.30807     0.70579     0.00000
    21.30807     0.70167     0.00000
    21.30807     0.70192    -0.00000
    27.71483     0.70176    -0.00000
    27.71483     0.70084     0.00000
    27.71483     0.70011     0.00000
    27.71483     0.69691     0.00000
    27.71483     0.69716     0.00000
    21.30807     0.70695     0.00000
    21.30807     0.70579     0.00000
    21.30807     0.70518     0.00000
    21.30807     0.70167     0.00000
    21.30807     0.70192     0.00000
    14.79105     0.96097     0.00000
    14.79105     0.96033     0.00000
    14.79105     0.95722    -0.00000
    14.79105     0.95373     0.00000
    14.79105     0.95386    -0.00000
     8.81022     1.62624    -0.00000
     8.81022     1.63144    -0.00000
     8.81022     1.61455    -0.00000
     8.81022     1.61348     0.00000
     8.81022     1.61252     0.00000
     5.52885     2.57539    -0.00000
     5.52885     2.59577     0.00000
     5.52885     2.59577     0.00000
     5.52885     2.67958    -0.00000
     5.52885     2.69815     0.00000
     8.81022     1.62624     0.00000
     8.81022     1.61455    -0.00000
     8.81022     1.63144     0.00000
     8.81022     1.61348    -0.00000
     8.81022     1.61252     0.00000
    14.79105     0.96097     0.00000
    14.79105     0.95722    -0.00000
    14.79105     0.96033     0.00000
    14.79105     0.95373    -0.00000
    14.79105     0.95386    -0.00000
    21.30807     0.70695    -0.00000
    21.30807     0.70518     0.00000
    21.30807     0.70579     0.00000
    21.30807     0.70167    -0.00000
    21.30807     0.70192    -0.00000
    26.58901     0.70117    -0.00000
    26.58901     0.69967     0.00000
    26.58901     0.69999     0.00000
    26.58901     0.69620    -0.00000
    26.58901     0.69647    -0.00000
    19.82164     0.71893     0.00000
    19.82164     0.71718     0.00000
    19.82164     0.71689    -0.00000
    19.82164     0.71261    -0.00000
    19.82164     0.71285     0.00000
    13.15001     1.03679    -0.00000
    13.15001     1.03189     0.00000
    13.15001     1.03062    -0.00000
    13.15001     1.02176    -0.00000
    13.15001     1.02190    -0.00000
     6.85943     2.06711    -0.00000
     6.85943     2.03002     0.00000
     6.85943     2.03002     0.00000
     6.85943     1.98033    -0.00000
     6.85943     1.97965    -0.00000
     3.90949     3.58660     0.00000
     3.90949     3.47502    -0.00000
     3.90949     3.74027     0.00000
     3.90949     3.89700     0.00000
     3.90949     3.81969     0.00000
     8.81022     1.62624    -0.00000
     8.81022     1.61455     0.00000
     8.81022     1.63144     0.00000
     8.81022     1.61348     0.00000
     8.81022     1.61252    -0.00000
    15.29899     0.94000     0.00000
    15.29899     0.93737    -0.00000
    15.29899     0.93938    -0.00000
    15.29899     0.93419     0.00000
    15.29899     0.93439    -0.00000
    32.46568     0.89556     0.00000
    32.46568     0.89497    -0.00000
    32.46568     0.89497     0.00000
    32.46568     0.89239    -0.00000
    32.46568     0.89273    -0.00000
    25.71231     0.69413    -0.00000
    25.71231     0.69293     0.00000
    25.71231     0.69293     0.00000
    25.71231     0.68952     0.00000
    25.71231     0.68981    -0.00000
    19.03495     0.72889    -0.00000
    19.03495     0.72660    -0.00000
    19.03495     0.72660    -0.00000
    19.03495     0.72163     0.00000
    19.03495     0.72187     0.00000
    12.55543     1.07467     0.00000
    12.55543     1.06688    -0.00000
    12.55543     1.06688     0.00000
    12.55543     1.05475     0.00000
    12.55543     1.05492     0.00000
     6.85943     2.06711    -0.00000
     6.85943     2.03002    -0.00000
     6.85943     2.03002     0.00000
     6.85943     1.98032    -0.00000
     6.85943     1.97965     0.00000
     5.52885     2.57539    -0.00000
     5.52885     2.59577     0.00000
     5.52885     2.59577     0.00000
     5.52885     2.67958    -0.00000
     5.52885     2.69815    -0.00000
    10.40135     1.41284    -0.00000
    10.40135     1.41404    -0.00000
    10.40135     1.41404    -0.00000
    10.40135     1.41309    -0.00000
    10.40135     1.41358    -0.00000
    38.66741     1.21860     0.00000
    38.66741     1.22462     0.00000
    38.66741     1.21845     0.00000
    38.66741     1.22445     0.00000
    38.66741     1.22514    -0.00000
    31.99144     0.86233    -0.00000
    31.99144     0.86298     0.00000
    31.99144     0.86175     0.00000
    31.99144     0.86080     0.00000
    31.99144     0.86122    -0.00000
    25.41336     0.69106     0.00000
    25.41336     0.68998    -0.00000
    25.41336     0.68984    -0.00000
    25.41336     0.68659    -0.00000
    25.41336     0.68690     0.00000
    19.03495     0.72889    -0.00000
    19.03495     0.72660    -0.00000
    19.03495     0.72660    -0.00000
    19.03495     0.72163    -0.00000
    19.03495     0.72187    -0.00000
    13.15001     1.03679     0.00000
    13.15001     1.03189     0.00000
    13.15001     1.03062     0.00000
    13.15001     1.02176    -0.00000
    13.15001     1.02190    -0.00000
     8.81022     1.62624     0.00000
     8.81022     1.63144    -0.00000
     8.81022     1.61455    -0.00000
     8.81022     1.61348     0.00000
     8.81022     1.61252    -0.00000
     8.74188     1.71996    -0.00000
     8.74188     1.74609     0.00000
     8.74188     1.71787     0.00000
     8.74188     1.75565     0.00000
     8.74188     1.76060    -0.00000
    45.06019     1.38803    -0.00000
    45.06019     1.40402     0.00000
    45.06019     1.38623     0.00000
    45.06019     1.40680    -0.00000
    45.06019     1.40738     0.00000
    38.46927     1.14863     0.00000
    38.46927     1.15523     0.00000
    38.46927     1.14829    -0.00000
    38.46927     1.15533    -0.00000
    38.46927     1.15600    -0.00000
    31.99144     0.86233    -0.00000
    31.99144     0.86298     0.00000
    31.99144     0.86175     0.00000
    31.99144     0.86080     0.00000
    31.99144     0.86122    -0.00000
    25.71231     0.69413    -0.00000
    25.71231     0.69293    -0.00000
    25.71231     0.69293    -0.00000
    25.71231     0.68952     0.00000
    25.71231     0.68981    -0.00000
    19.82164     0.71893     0.00000
    19.82164     0.71718     0.00000
    19.82164     0.71689     0.00000
    19.82164     0.71261     0.00000
    19.82164     0.71285    -0.00000
    14.79105     0.96097    -0.00000
    14.79105     0.96033    -0.00000
    14.79105     0.95722    -0.00000
    14.79105     0.95373     0.00000
    14.79105     0.95386     0.00000
    11.77949     1.31134     0.00000
    11.77949     1.32134     0.00000
    11.77949     1.30694    -0.00000
    11.77949     1.31648    -0.00000
    11.77949     1.31604     0.00000
    20.43204     0.89335    -0.00000
    20.43204     0.89449    -0.00000
    20.43204     0.89148    -0.00000
    20.43204     0.89076    -0.00000
    20.43204     0.89102     0.00000
    16.15640     1.14863     0.00000
    16.15640     1.15523     0.00000
    16.15640     1.14829    -0.00000
    16.15640     1.15533    -0.00000
    16.15640     1.15600    -0.00000
    14.09586     1.26572     0.00000
    14.09586     1.27438     0.00000
    14.09586     1.26839     0.00000
    14.09586     1.27973    -0.00000
    14.09586     1.28240     0.00000
    15.18094     1.11774    -0.00000
    15.18094     1.12074    -0.00000
    15.18094     1.12074     0.00000
    15.18094     1.12402    -0.00000
    15.18094     1.12516    -0.00000
    18.87676     0.86233    -0.00000
    18.87676     0.86175    -0.00000
    18.87676     0.86298     0.00000
    18.87676     0.86080     0.00000
    18.87676     0.86122    -0.00000
    24.00639     0.69695    -0.00000
    24.00639     0.69550     0.00000
    24.00639     0.69595     0.00000
    24.00639     0.69227     0.00000
    24.00639     0.69255     0.00000
    29.83931     0.70695     0.00000
    29.83931     0.70579    -0.00000
    29.83931     0.70518     0.00000
    29.83931     0.70167    -0.00000
    29.83931     0.70192     0.00000
    23.36104     0.70176    -0.00000
    23.36104     0.70084    -0.00000
    23.36104     0.70011    -0.00000
    23.36104     0.69691     0.00000
    23.36104     0.69716    -0.00000
    17.62043     0.89335     0.00000
    17.62043     0.89449    -0.00000
    17.62043     0.89148     0.00000
    17.62043     0.89076     0.00000
    17.62043     0.89102    -0.00000
    13.01248     1.21860    -0.00000
    13.01248     1.22462    -0.00000
    13.01248     1.21845    -0.00000
    13.01248     1.22445     0.00000
    13.01248     1.22514    -0.00000
    11.05770     1.43278    -0.00000
    11.05770     1.44045    -0.00000
    11.05770     1.44045     0.00000
    11.05770     1.45284     0.00000
    11.05770     1.45825     0.00000
    13.01248     1.21860    -0.00000
    13.01248     1.21845    -0.00000
    13.01248     1.22462     0.00000
    13.01248     1.22445    -0.00000
    13.01248     1.22514     0.00000
    17.62043     0.89335    -0.00000
    17.62043     0.89148    -0.00000
    17.62043     0.89449     0.00000
    17.62043     0.89076    -0.00000
    17.62043     0.89102     0.00000
    23.36104     0.70176     0.00000
    23.36104     0.70011     0.00000
    23.36104     0.70084    -0.00000
    23.36104     0.69691    -0.00000
    23.36104     0.69716    -0.00000
    27.71483     0.70176     0.00000
    27.71483     0.70011     0.00000
    27.71483     0.70084    -0.00000
    27.71483     0.69691    -0.00000
    27.71483     0.69716    -0.00000
    21.30807     0.70695     0.00000
    21.30807     0.70579     0.00000
    21.30807     0.70518    -0.00000
    21.30807     0.70167    -0.00000
    21.30807     0.70192    -0.00000
    15.29899     0.94000    -0.00000
    15.29899     0.93938    -0.00000
    15.29899     0.93737    -0.00000
    15.29899     0.93419    -0.00000
    15.29899     0.93439    -0.00000
    10.40135     1.41284     0.00000
    10.40135     1.41404    -0.00000
    10.40135     1.41404     0.00000
    10.40135     1.41309    -0.00000
    10.40135     1.41358     0.00000
     8.74188     1.71997    -0.00000
     8.74188     1.71787    -0.00000
     8.74188     1.74609    -0.00000
     8.74188     1.75565     0.00000
     8.74188     1.76060    -0.00000
    11.77949     1.31134     0.00000
    11.77949     1.30694     0.00000
    11.77949     1.32134     0.00000
    11.77949     1.31648     0.00000
    11.77949     1.31604    -0.00000
    17.18126     0.90758    -0.00000
    17.18126     0.90507    -0.00000
    17.18126     0.90896    -0.00000
    17.18126     0.90446     0.00000
    17.18126     0.90463    -0.00000
    32.93309     0.89335     0.00000
    32.93309     0.89148    -0.00000
    32.93309     0.89449     0.00000
    32.93309     0.89076    -0.00000
    32.93309     0.89102    -0.00000
    26.30002     0.69695     0.00000
    26.30002     0.69550     0.00000
    26.30002     0.69595     0.00000
    26.30002     0.69227     0.00000
    26.30002     0.69255    -0.00000
    19.82164     0.71893     0.00000
    19.82164     0.71718    -0.00000
    19.82164     0.71689     0.00000
    19.82164     0.71261     0.00000
    19.82164     0.71285     0.00000
    13.71885     1.00496    -0.00000
    13.71885     1.00093    -0.00000
    13.71885     1.00093    -0.00000
    13.71885     0.99338     0.00000
    13.71885     0.99353     0.00000
     8.81022     1.62624     0.00000
     8.81022     1.61455     0.00000
     8.81022     1.63144     0.00000
     8.81022     1.61348     0.00000
     8.81022     1.61252     0.00000
     7.81898     1.89351    -0.00000
     7.81898     1.87751     0.00000
     7.81898     1.94076     0.00000
     7.81898     1.94908    -0.00000
     7.81898     1.93531     0.00000
    11.77949     1.31134    -0.00000
    11.77949     1.30694     0.00000
    11.77949     1.32134    -0.00000
    11.77949     1.31648    -0.00000
    11.77949     1.31604    -0.00000
    38.66741     1.21860    -0.00000
    38.66741     1.21845     0.00000
    38.66741     1.22462    -0.00000
    38.66741     1.22445     0.00000
    38.66741     1.22514     0.00000
    31.99144     0.86233     0.00000
    31.99144     0.86175    -0.00000
    31.99144     0.86298     0.00000
    31.99144     0.86080    -0.00000
    31.99144     0.86122    -0.00000
    25.41336     0.69106     0.00000
    25.41336     0.68984    -0.00000
    25.41336     0.68998     0.00000
    25.41336     0.68659    -0.00000
    25.41336     0.68690    -0.00000
    19.03495     0.72889    -0.00000
    19.03495     0.72660    -0.00000
    19.03495     0.72660     0.00000
    19.03495     0.72163    -0.00000
    19.03495     0.72187    -0.00000
    13.15001     1.03679    -0.00000
    13.15001     1.03062    -0.00000
    13.15001     1.03189    -0.00000
    13.15001     1.02176    -0.00000
    13.15001     1.02190     0.00000
     8.81022     1.62624    -0.00000
     8.81022     1.61455     0.00000
     8.81022     1.63144     0.00000
     8.81022     1.61348     0.00000
     8.81022     1.61252    -0.00000
     8.74188     1.71996     0.00000
     8.74188     1.71787     0.00000
     8.74188     1.74609    -0.00000
     8.74188     1.75565     0.00000
     8.74188     1.76060    -0.00000
    44.71971     1.43278    -0.00000
    44.71971     1.44044     0.00000
    44.71971     1.44044    -0.00000
    44.71971     1.45284    -0.00000
    44.71971     1.45825    -0.00000
    38.06989     1.11774     0.00000
    38.06989     1.12074    -0.00000
    38.06989     1.12074     0.00000
    38.06989     1.12402    -0.00000
    38.06989     1.12516     0.00000
    31.51006     0.83835    -0.00000
    31.51006     0.83866     0.00000
    31.51006     0.83866     0.00000
    31.51006     0.83757     0.00000
    31.51006     0.83809    -0.00000
    25.11085     0.68848     0.00000
    25.11085     0.68736     0.00000
    25.11085     0.68736     0.00000
    25.11085     0.68409     0.00000
    25.11085     0.68441     0.00000
    19.03495     0.72889    -0.00000
    19.03495     0.72660    -0.00000
    19.03495     0.72660     0.00000
    19.03495     0.72163     0.00000
    19.03495     0.72187     0.00000
    13.71885     1.00496     0.00000
    13.71885     1.00093    -0.00000
    13.71885     1.00093    -0.00000
    13.71885     0.99338     0.00000
    13.71885     0.99353     0.00000
    10.40135     1.41284     0.00000
    10.40135     1.41404     0.00000
    10.40135     1.41404    -0.00000
    10.40135     1.41309    -0.00000
    10.40135     1.41358    -0.00000
    50.97686     1.21860     0.00000
    50.97686     1.22462    -0.00000
    50.97686     1.21845     0.00000
    50.97686     1.22445     0.00000
    50.97686     1.22514     0.00000
    44.37662     1.26572    -0.00000
    44.37662     1.27438    -0.00000
    44.37662     1.26839     0.00000
    44.37662     1.27973     0.00000
    44.37662     1.28240    -0.00000
    37.86862     1.07714     0.00000
    37.86862     1.08105     0.00000
    37.86862     1.07921     0.00000
    37.86862     1.08347    -0.00000
    37.86862     1.08466     0.00000
    31.51006     0.83835    -0.00000
    31.51006     0.83866     0.00000
    31.51006     0.83866     0.00000
    31.51006     0.83757    -0.00000
    31.51006     0.83809     0.00000
    25.41336     0.69106    -0.00000
    25.41336     0.68984     0.00000
    25.41336     0.68998     0.00000
    25.41336     0.68659    -0.00000
    25.41336     0.68690    -0.00000
    19.82164     0.71893     0.00000
    19.82164     0.71718     0.00000
    19.82164     0.71689    -0.00000
    19.82164     0.71261    -0.00000
    19.82164     0.71285    -0.00000
    15.29900     0.94000    -0.00000
    15.29900     0.93938    -0.00000
    15.29900     0.93737     0.00000
    15.29900     0.93419     0.00000
    15.29900     0.93439     0.00000
    26.43065     0.70117     0.00000
    26.43065     0.69999     0.00000
    26.43065     0.69967    -0.00000
    26.43065     0.69620     0.00000
    26.43065     0.69647    -0.00000
    21.52489     0.86233     0.00000
    21.52489     0.86298    -0.00000
    21.52489     0.86175     0.00000
    21.52489     0.86080     0.00000
    21.52489     0.86122     0.00000
    17.94897     1.07714    -0.00000
    17.94897     1.08105     0.00000
    17.94897     1.07921     0.00000
    17.94897     1.08347     0.00000
    17.94897     1.08466     0.00000
    16.58655     1.17842     0.00000
    16.58655     1.18323     0.00000
    16.58655     1.18323     0.00000
    16.58655     1.18990    -0.00000
    16.58655     1.19255    -0.00000
    17.94897     1.07714    -0.00000
    17.94897     1.07921     0.00000
    17.94897     1.08105     0.00000
    17.94897     1.08347    -0.00000
    17.94897     1.08466    -0.00000
    21.52489     0.86233    -0.00000
    21.52489     0.86175     0.00000
    21.52489     0.86298     0.00000
    21.52489     0.86080    -0.00000
    21.52489     0.86122     0.00000
    26.43065     0.70117    -0.00000
    26.43065     0.69967    -0.00000
    26.43065     0.69999     0.00000
    26.43065     0.69620    -0.00000
    26.43065     0.69647    -0.00000
    29.83931     0.70695     0.00000
    29.83931     0.70518     0.00000
    29.83931     0.70579    -0.00000
    29.83931     0.70167     0.00000
    29.83931     0.70192     0.00000
    24.00639     0.69695    -0.00000
    24.00639     0.69595     0.00000
    24.00639     0.69550     0.00000
    24.00639     0.69227    -0.00000
    24.00639     0.69255    -0.00000
    18.87676     0.86233     0.00000
    18.87676     0.86298    -0.00000
    18.87676     0.86175     0.00000
    18.87676     0.86080    -0.00000
    18.87676     0.86122     0.00000
    15.18094     1.11774    -0.00000
    15.18094     1.12074    -0.00000
    15.18094     1.12074     0.00000
    15.18094     1.12402    -0.00000
    15.18094     1.12516    -0.00000
    14.09586     1.26572     0.00000
    14.09586     1.26839    -0.00000
    14.09586     1.27438     0.00000
    14.09586     1.27973     0.00000
    14.09586     1.28240     0.00000
    16.15640     1.14863    -0.00000
    16.15640     1.14829    -0.00000
    16.15640     1.15523     0.00000
    16.15640     1.15533     0.00000
    16.15640     1.15600    -0.00000
    20.43204     0.89335    -0.00000
    20.43204     0.89148    -0.00000
    20.43204     0.89449     0.00000
    20.43204     0.89076     0.00000
    20.43204     0.89102     0.00000
    34.29713     0.90758    -0.00000
    34.29713     0.90507    -0.00000
    34.29713     0.90896    -0.00000
    34.29713     0.90446    -0.00000
    34.29713     0.90463    -0.00000
    27.98921     0.70695     0.00000
    27.98921     0.70518     0.00000
    27.98921     0.70579    -0.00000
    27.98921     0.70167     0.00000
    27.98921     0.70192     0.00000
    22.01368     0.70117     0.00000
    22.01368     0.69999     0.00000
    22.01368     0.69967     0.00000
    22.01368     0.69620     0.00000
    22.01368     0.69647    -0.00000
    16.73056     0.89556     0.00000
    16.73056     0.89497    -0.00000
    16.73056     0.89497    -0.00000
    16.73056     0.89239     0.00000
    16.73056     0.89273     0.00000
    13.01248     1.21860     0.00000
    13.01248     1.21845     0.00000
    13.01248     1.22462     0.00000
    13.01248     1.22445     0.00000
    13.01248     1.22514     0.00000
    12.36289     1.38803    -0.00000
    12.36289     1.38623    -0.00000
    12.36289     1.40402     0.00000
    12.36289     1.40680    -0.00000
    12.36289     1.40738     0.00000
    15.18094     1.20998    -0.00000
    15.18094     1.20714    -0.00000
    15.18094     1.21940     0.00000
    15.18094     1.21710    -0.00000
    15.18094     1.21694     0.00000
    39.45003     1.20998    -0.00000
    39.45003     1.20714    -0.00000
    39.45003     1.21940     0.00000
    39.45003     1.21710     0.00000
    39.45003     1.21694    -0.00000
    32.93309     0.89335     0.00000
    32.93309     0.89148    -0.00000
    32.93309     0.89449    -0.00000
    32.93309     0.89076    -0.00000
    32.93309     0.89102    -0.00000
    26.58901     0.70117    -0.00000
    26.58901     0.69967     0.00000
    26.58901     0.69999     0.00000
    26.58901     0.69620    -0.00000
    26.58901     0.69647     0.00000
    20.57828     0.71089     0.00000
    20.57828     0.70926    -0.00000
    20.57828     0.70926     0.00000
    20.57828     0.70520    -0.00000
    20.57828     0.70546     0.00000
    15.29899     0.94000    -0.00000
    15.29899     0.93737     0.00000
    15.29899     0.93938     0.00000
    15.29899     0.93419    -0.00000
    15.29899     0.93439     0.00000
    11.77949     1.31134     0.00000
    11.77949     1.30694    -0.00000
    11.77949     1.32134     0.00000
    11.77949     1.31648     0.00000
    11.77949     1.31604     0.00000
    11.72847     1.44838     0.00000
    11.72847     1.44342     0.00000
    11.72847     1.46892     0.00000
    11.72847     1.47113     0.00000
    11.72847     1.46818     0.00000
    45.06019     1.38803     0.00000
    45.06019     1.38623    -0.00000
    45.06019     1.40402     0.00000
    45.06019     1.40680    -0.00000
    45.06019     1.40738     0.00000
    38.46927     1.14863    -0.00000
    38.46927     1.14829    -0.00000
    38.46927     1.15523    -0.00000
    38.46927     1.15533    -0.00000
    38.46927     1.15600     0.00000
    31.99144     0.86233     0.00000
    31.99144     0.86175     0.00000
    31.99144     0.86298    -0.00000
    31.99144     0.86080     0.00000
    31.99144     0.86122     0.00000
    25.71231     0.69413     0.00000
    25.71231     0.69293    -0.00000
    25.71231     0.69293    -0.00000
    25.71231     0.68952     0.00000
    25.71231     0.68981    -0.00000
    19.82164     0.71893     0.00000
    19.82164     0.71689     0.00000
    19.82164     0.71718     0.00000
    19.82164     0.71261     0.00000
    19.82164     0.71285     0.00000
    14.79105     0.96097     0.00000
    14.79105     0.95722    -0.00000
    14.79105     0.96033    -0.00000
    14.79105     0.95373    -0.00000
    14.79105     0.95386     0.00000
    11.77949     1.31134     0.00000
    11.77949     1.30694     0.00000
    11.77949     1.32134     0.00000
    11.77949     1.31648    -0.00000
    11.77949     1.31604    -0.00000
    50.97686     1.21860    -0.00000
    50.97686     1.21845     0.00000
    50.97686     1.22462     0.00000
    50.97686     1.22445     0.00000
    50.97686     1.22514     0.00000
    44.37662     1.26572    -0.00000
    44.37662     1.26839    -0.00000
    44.37662     1.27438    -0.00000
    44.37662     1.27973     0.00000
    44.37662     1.28240    -0.00000
    37.86862     1.07714     0.00000
    37.86862     1.07921     0.00000
    37.86862     1.08105     0.00000
    37.86862     1.08347     0.00000
    37.86862     1.08466     0.00000
    31.51006     0.83835    -0.00000
    31.51006     0.83866     0.00000
    31.51006     0.83866     0.00000
    31.51006     0.83757    -0.00000
    31.51006     0.83809    -0.00000
    25.41336     0.69106     0.00000
    25.41336     0.68998    -0.00000
    25.41336     0.68984    -0.00000
    25.41336     0.68659    -0.00000
    25.41336     0.68690     0.00000
    19.82164     0.71893    -0.00000
    19.82164     0.71689     0.00000
    19.82164     0.71718    -0.00000
    19.82164     0.71261    -0.00000
    19.82164     0.71285     0.00000
    15.29900     0.94000    -0.00000
    15.29900     0.93737     0.00000
    15.29900     0.93938    -0.00000
    15.29900     0.93419     0.00000
    15.29900     0.93439     0.00000
    57.10484     0.89556     0.00000
    57.10484     0.89497    -0.00000
    57.10484     0.89497    -0.00000
    57.10484     0.89239    -0.00000
    57.10484     0.89273    -0.00000
    50.52512     1.11774     0.00000
    50.52512     1.12074     0.00000
    50.52512     1.12074     0.00000
    50.52512     1.12402    -0.00000
    50.52512     1.12516    -0.00000
    44.03086     1.17842    -0.00000
    44.03086     1.18323     0.00000
    44.03086     1.18323    -0.00000
    44.03086     1.18990    -0.00000
    44.03086     1.19255    -0.00000
    37.66628     1.04696     0.00000
    37.66628     1.04988    -0.00000
    37.66628     1.04988     0.00000
    37.66628     1.05314     0.00000
    37.66628     1.05444     0.00000
    31.51006     0.83835     0.00000
    31.51006     0.83866    -0.00000
    31.51006     0.83866     0.00000
    31.51006     0.83757     0.00000
    31.51006     0.83809    -0.00000
    25.71231     0.69413     0.00000
    25.71231     0.69293     0.00000
    25.71231     0.69293     0.00000
    25.71231     0.68952     0.00000
    25.71231     0.68981    -0.00000
    20.57828     0.71089     0.00000
    20.57828     0.70926     0.00000
    20.57828     0.70926    -0.00000
    20.57828     0.70520     0.00000
    20.57828     0.70546    -0.00000
