#R dependence of bare Coulomb
#1:R [AA], 2:Re[V(R)] [eV], 3:Im[V(R)] [eV]
    20.57828     0.71063     0.00000
    20.57828     0.70900     0.00000
    20.57828     0.70900    -0.00000
    20.57828     0.70495     0.00000
    20.57828     0.70520    -0.00000
    25.71231     0.69383     0.00000
    25.71231     0.69263     0.00000
    25.71231     0.69263    -0.00000
    25.71231     0.68922     0.00000
    25.71231     0.68952    -0.00000
    31.51006     0.83782     0.00000
    31.51006     0.83813     0.00000
    31.51006     0.83813    -0.00000
    31.51006     0.83706     0.00000
    31.51006     0.83757    -0.00000
    37.66628     1.04564    -0.00000
    37.66628     1.04858     0.00000
    37.66628     1.04858    -0.00000
    37.66628     1.05186     0.00000
    37.66628     1.05314    -0.00000
    44.03086     1.17593    -0.00000
    44.03086     1.18072    -0.00000
    44.03086     1.18072     0.00000
    44.03086     1.18728    -0.00000
    44.03086     1.18990     0.00000
    50.52512     1.11653     0.00000
    50.52512     1.11955    -0.00000
    50.52512     1.11955     0.00000
    50.52512     1.12286    -0.00000
    50.52512     1.12402     0.00000
    57.10484     0.89521    -0.00000
    57.10484     0.89463    -0.00000
    57.10484     0.89463     0.00000
    57.10484     0.89205    -0.00000
    57.10484     0.89239     0.00000
    15.29900     0.93980     0.00000
    15.29900     0.93716    -0.00000
    15.29900     0.93918    -0.00000
    15.29900     0.93398     0.00000
    15.29900     0.93419    -0.00000
    19.82164     0.71869    -0.00000
    19.82164     0.71665    -0.00000
    19.82164     0.71694    -0.00000
    19.82164     0.71236     0.00000
    19.82164     0.71261     0.00000
    25.41336     0.69075    -0.00000
    25.41336     0.68967     0.00000
    25.41336     0.68954     0.00000
    25.41336     0.68628    -0.00000
    25.41336     0.68659     0.00000
    31.51006     0.83782    -0.00000
    31.51006     0.83813    -0.00000
    31.51006     0.83813     0.00000
    31.51006     0.83706    -0.00000
    31.51006     0.83757     0.00000
    37.86862     1.07592     0.00000
    37.86862     1.07801     0.00000
    37.86862     1.07983    -0.00000
    37.86862     1.08229    -0.00000
    37.86862     1.08347    -0.00000
    44.37662     1.26325     0.00000
    44.37662     1.26598     0.00000
    44.37662     1.27179    -0.00000
    44.37662     1.27707     0.00000
    44.37662     1.27973    -0.00000
    50.97686     1.21780     0.00000
    50.97686     1.21772     0.00000
    50.97686     1.22384    -0.00000
    50.97686     1.22374     0.00000
    50.97686     1.22445    -0.00000
    11.77949     1.31187    -0.00000
    11.77949     1.30739    -0.00000
    11.77949     1.32188     0.00000
    11.77949     1.31692    -0.00000
    11.77949     1.31648     0.00000
    14.79105     0.96087     0.00000
    14.79105     0.95710     0.00000
    14.79105     0.96022    -0.00000
    14.79105     0.95361     0.00000
    14.79105     0.95373     0.00000
    19.82164     0.71869    -0.00000
    19.82164     0.71665     0.00000
    19.82164     0.71694    -0.00000
    19.82164     0.71236     0.00000
    19.82164     0.71261    -0.00000
    25.71231     0.69383     0.00000
    25.71231     0.69263     0.00000
    25.71231     0.69263    -0.00000
    25.71231     0.68922     0.00000
    25.71231     0.68952    -0.00000
    31.99144     0.86190     0.00000
    31.99144     0.86132    -0.00000
    31.99144     0.86256    -0.00000
    31.99144     0.86039     0.00000
    31.99144     0.86080    -0.00000
    38.46927     1.14792     0.00000
    38.46927     1.14761    -0.00000
    38.46927     1.15452     0.00000
    38.46927     1.15466    -0.00000
    38.46927     1.15533     0.00000
    45.06019     1.38744    -0.00000
    45.06019     1.38573    -0.00000
    45.06019     1.40333     0.00000
    45.06019     1.40607    -0.00000
    45.06019     1.40680     0.00000
    11.72847     1.45130     0.00000
    11.72847     1.44596     0.00000
    11.72847     1.47224    -0.00000
    11.72847     1.47464     0.00000
    11.72847     1.47113    -0.00000
    11.77949     1.31187     0.00000
    11.77949     1.30739     0.00000
    11.77949     1.32188    -0.00000
    11.77949     1.31692    -0.00000
    11.77949     1.31648    -0.00000
    15.29899     0.93980    -0.00000
    15.29899     0.93717    -0.00000
    15.29899     0.93918     0.00000
    15.29899     0.93398    -0.00000
    15.29899     0.93419     0.00000
    20.57828     0.71063    -0.00000
    20.57828     0.70900    -0.00000
    20.57828     0.70900     0.00000
    20.57828     0.70495    -0.00000
    20.57828     0.70520     0.00000
    26.58901     0.70089     0.00000
    26.58901     0.69940    -0.00000
    26.58901     0.69972     0.00000
    26.58901     0.69593    -0.00000
    26.58901     0.69620     0.00000
    32.93309     0.89310     0.00000
    32.93309     0.89123    -0.00000
    32.93309     0.89424     0.00000
    32.93309     0.89050    -0.00000
    32.93309     0.89076     0.00000
    39.45003     1.21017     0.00000
    39.45003     1.20729    -0.00000
    39.45003     1.21961    -0.00000
    39.45003     1.21725     0.00000
    39.45003     1.21710    -0.00000
    15.18094     1.21017    -0.00000
    15.18094     1.20729     0.00000
    15.18094     1.21961     0.00000
    15.18094     1.21725    -0.00000
    15.18094     1.21710     0.00000
    12.36289     1.38744     0.00000
    12.36289     1.38573    -0.00000
    12.36289     1.40333     0.00000
    12.36289     1.40607    -0.00000
    12.36289     1.40680     0.00000
    13.01248     1.21780     0.00000
    13.01248     1.21772     0.00000
    13.01248     1.22384    -0.00000
    13.01248     1.22374    -0.00000
    13.01248     1.22445    -0.00000
    16.73056     0.89521     0.00000
    16.73056     0.89463     0.00000
    16.73056     0.89463    -0.00000
    16.73056     0.89205     0.00000
    16.73056     0.89239    -0.00000
    22.01368     0.70089     0.00000
    22.01368     0.69972     0.00000
    22.01368     0.69940    -0.00000
    22.01368     0.69593     0.00000
    22.01368     0.69620    -0.00000
    27.98921     0.70670     0.00000
    27.98921     0.70493     0.00000
    27.98921     0.70554    -0.00000
    27.98921     0.70142     0.00000
    27.98921     0.70167    -0.00000
    34.29713     0.90743    -0.00000
    34.29713     0.90491    -0.00000
    34.29713     0.90881    -0.00000
    34.29713     0.90429    -0.00000
    34.29713     0.90446     0.00000
    20.43204     0.89310     0.00000
    20.43204     0.89123     0.00000
    20.43204     0.89424    -0.00000
    20.43204     0.89050     0.00000
    20.43204     0.89076    -0.00000
    16.15640     1.14792     0.00000
    16.15640     1.14761     0.00000
    16.15640     1.15452    -0.00000
    16.15640     1.15466     0.00000
    16.15640     1.15533    -0.00000
    14.09586     1.26325     0.00000
    14.09586     1.26598     0.00000
    14.09586     1.27179    -0.00000
    14.09586     1.27707     0.00000
    14.09586     1.27973    -0.00000
    15.18094     1.11653    -0.00000
    15.18094     1.11955     0.00000
    15.18094     1.11955     0.00000
    15.18094     1.12286    -0.00000
    15.18094     1.12402     0.00000
    18.87676     0.86190    -0.00000
    18.87676     0.86256    -0.00000
    18.87676     0.86132     0.00000
    18.87676     0.86039    -0.00000
    18.87676     0.86080     0.00000
    24.00639     0.69667    -0.00000
    24.00639     0.69567    -0.00000
    24.00639     0.69522     0.00000
    24.00639     0.69200    -0.00000
    24.00639     0.69227     0.00000
    29.83931     0.70670     0.00000
    29.83931     0.70493     0.00000
    29.83931     0.70554    -0.00000
    29.83931     0.70142    -0.00000
    29.83931     0.70167    -0.00000
    26.43065     0.70089    -0.00000
    26.43065     0.69940    -0.00000
    26.43065     0.69972     0.00000
    26.43065     0.69593    -0.00000
    26.43065     0.69620     0.00000
    21.52489     0.86190    -0.00000
    21.52489     0.86132    -0.00000
    21.52489     0.86256     0.00000
    21.52489     0.86039    -0.00000
    21.52489     0.86080     0.00000
    17.94897     1.07592     0.00000
    17.94897     1.07801    -0.00000
    17.94897     1.07983     0.00000
    17.94897     1.08229    -0.00000
    17.94897     1.08347     0.00000
    16.58655     1.17593     0.00000
    16.58655     1.18072     0.00000
    16.58655     1.18072    -0.00000
    16.58655     1.18728    -0.00000
    16.58655     1.18990     0.00000
    17.94897     1.07592     0.00000
    17.94897     1.07983     0.00000
    17.94897     1.07801    -0.00000
    17.94897     1.08229     0.00000
    17.94897     1.08347    -0.00000
    21.52489     0.86190     0.00000
    21.52489     0.86256     0.00000
    21.52489     0.86132    -0.00000
    21.52489     0.86039     0.00000
    21.52489     0.86080    -0.00000
    26.43065     0.70089     0.00000
    26.43065     0.69972     0.00000
    26.43065     0.69940    -0.00000
    26.43065     0.69593     0.00000
    26.43065     0.69620    -0.00000
    15.29900     0.93980    -0.00000
    15.29900     0.93918     0.00000
    15.29900     0.93716    -0.00000
    15.29900     0.93398     0.00000
    15.29900     0.93419    -0.00000
    19.82164     0.71869    -0.00000
    19.82164     0.71694    -0.00000
    19.82164     0.71665     0.00000
    19.82164     0.71236    -0.00000
    19.82164     0.71261     0.00000
    25.41336     0.69075    -0.00000
    25.41336     0.68954    -0.00000
    25.41336     0.68967     0.00000
    25.41336     0.68628    -0.00000
    25.41336     0.68659     0.00000
    31.51006     0.83782    -0.00000
    31.51006     0.83813    -0.00000
    31.51006     0.83813     0.00000
    31.51006     0.83706    -0.00000
    31.51006     0.83757     0.00000
    37.86862     1.07592    -0.00000
    37.86862     1.07983     0.00000
    37.86862     1.07801    -0.00000
    37.86862     1.08229    -0.00000
    37.86862     1.08347     0.00000
    44.37662     1.26325     0.00000
    44.37662     1.27179     0.00000
    44.37662     1.26598    -0.00000
    44.37662     1.27707     0.00000
    44.37662     1.27973    -0.00000
    50.97686     1.21780     0.00000
    50.97686     1.22384     0.00000
    50.97686     1.21772    -0.00000
    50.97686     1.22374     0.00000
    50.97686     1.22445    -0.00000
    10.40135     1.41202    -0.00000
    10.40135     1.41341    -0.00000
    10.40135     1.41341     0.00000
    10.40135     1.41261     0.00000
    10.40135     1.41309     0.00000
    13.71885     1.00481     0.00000
    13.71885     1.00079    -0.00000
    13.71885     1.00079    -0.00000
    13.71885     0.99322     0.00000
    13.71885     0.99338    -0.00000
    19.03495     0.72866     0.00000
    19.03495     0.72636     0.00000
    19.03495     0.72636    -0.00000
    19.03495     0.72139     0.00000
    19.03495     0.72163    -0.00000
    25.11085     0.68816     0.00000
    25.11085     0.68704     0.00000
    25.11085     0.68704    -0.00000
    25.11085     0.68378     0.00000
    25.11085     0.68409    -0.00000
    31.51006     0.83782     0.00000
    31.51006     0.83813     0.00000
    31.51006     0.83813    -0.00000
    31.51006     0.83706     0.00000
    31.51006     0.83757    -0.00000
    38.06989     1.11653     0.00000
    38.06989     1.11955    -0.00000
    38.06989     1.11955     0.00000
    38.06989     1.12286    -0.00000
    38.06989     1.12402     0.00000
    44.71971     1.42808    -0.00000
    44.71971     1.43576    -0.00000
    44.71971     1.43576     0.00000
    44.71971     1.44756    -0.00000
    44.71971     1.45284     0.00000
     8.74188     1.71580     0.00000
     8.74188     1.71450     0.00000
     8.74188     1.74129    -0.00000
     8.74188     1.75033     0.00000
     8.74188     1.75565    -0.00000
     8.81022     1.62741     0.00000
     8.81022     1.61564     0.00000
     8.81022     1.63253    -0.00000
     8.81022     1.61440     0.00000
     8.81022     1.61348    -0.00000
    13.15001     1.03668    -0.00000
    13.15001     1.03049     0.00000
    13.15001     1.03177     0.00000
    13.15001     1.02163     0.00000
    13.15001     1.02176     0.00000
    19.03495     0.72866     0.00000
    19.03495     0.72636    -0.00000
    19.03495     0.72636     0.00000
    19.03495     0.72139    -0.00000
    19.03495     0.72163     0.00000
    25.41336     0.69075    -0.00000
    25.41336     0.68954    -0.00000
    25.41336     0.68967     0.00000
    25.41336     0.68628    -0.00000
    25.41336     0.68659     0.00000
    31.99144     0.86190    -0.00000
    31.99144     0.86132     0.00000
    31.99144     0.86256    -0.00000
    31.99144     0.86039    -0.00000
    31.99144     0.86080     0.00000
    38.66741     1.21780    -0.00000
    38.66741     1.21772     0.00000
    38.66741     1.22384    -0.00000
    38.66741     1.22374     0.00000
    38.66741     1.22445    -0.00000
    11.77949     1.31187    -0.00000
    11.77949     1.30739    -0.00000
    11.77949     1.32188     0.00000
    11.77949     1.31692    -0.00000
    11.77949     1.31648     0.00000
     7.81898     1.90718    -0.00000
     7.81898     1.88892    -0.00000
     7.81898     1.95631     0.00000
     7.81898     1.96545    -0.00000
     7.81898     1.94908     0.00000
     8.81022     1.62741     0.00000
     8.81022     1.61564     0.00000
     8.81022     1.63253    -0.00000
     8.81022     1.61440    -0.00000
     8.81022     1.61348    -0.00000
    13.71885     1.00481     0.00000
    13.71885     1.00079     0.00000
    13.71885     1.00079    -0.00000
    13.71885     0.99322     0.00000
    13.71885     0.99338    -0.00000
    19.82164     0.71869     0.00000
    19.82164     0.71694     0.00000
    19.82164     0.71665    -0.00000
    19.82164     0.71236     0.00000
    19.82164     0.71261    -0.00000
    26.30002     0.69667     0.00000
    26.30002     0.69522     0.00000
    26.30002     0.69567    -0.00000
    26.30002     0.69200    -0.00000
    26.30002     0.69227    -0.00000
    32.93309     0.89310     0.00000
    32.93309     0.89123    -0.00000
    32.93309     0.89424     0.00000
    32.93309     0.89050    -0.00000
    32.93309     0.89076     0.00000
    17.18126     0.90743     0.00000
    17.18126     0.90491    -0.00000
    17.18126     0.90881    -0.00000
    17.18126     0.90429     0.00000
    17.18126     0.90446    -0.00000
    11.77949     1.31187    -0.00000
    11.77949     1.30739     0.00000
    11.77949     1.32188    -0.00000
    11.77949     1.31692     0.00000
    11.77949     1.31648    -0.00000
     8.74188     1.71580    -0.00000
     8.74188     1.71450     0.00000
     8.74188     1.74129    -0.00000
     8.74188     1.75034     0.00000
     8.74188     1.75565    -0.00000
    10.40135     1.41202    -0.00000
    10.40135     1.41341    -0.00000
    10.40135     1.41341     0.00000
    10.40135     1.41261    -0.00000
    10.40135     1.41309     0.00000
    15.29899     0.93980    -0.00000
    15.29899     0.93918    -0.00000
    15.29899     0.93717     0.00000
    15.29899     0.93398    -0.00000
    15.29899     0.93419     0.00000
    21.30807     0.70670    -0.00000
    21.30807     0.70554    -0.00000
    21.30807     0.70493     0.00000
    21.30807     0.70142    -0.00000
    21.30807     0.70167     0.00000
    27.71483     0.70151     0.00000
    27.71483     0.69986     0.00000
    27.71483     0.70058    -0.00000
    27.71483     0.69665    -0.00000
    27.71483     0.69691     0.00000
    23.36104     0.70151    -0.00000
    23.36104     0.69986    -0.00000
    23.36104     0.70058     0.00000
    23.36104     0.69665    -0.00000
    23.36104     0.69691     0.00000
    17.62043     0.89310    -0.00000
    17.62043     0.89123    -0.00000
    17.62043     0.89424     0.00000
    17.62043     0.89050    -0.00000
    17.62043     0.89076     0.00000
    13.01248     1.21780    -0.00000
    13.01248     1.21772    -0.00000
    13.01248     1.22384     0.00000
    13.01248     1.22374    -0.00000
    13.01248     1.22445     0.00000
    11.05770     1.42809    -0.00000
    11.05770     1.43576    -0.00000
    11.05770     1.43576     0.00000
    11.05770     1.44756    -0.00000
    11.05770     1.45284    -0.00000
    13.01248     1.21780     0.00000
    13.01248     1.22384     0.00000
    13.01248     1.21772    -0.00000
    13.01248     1.22374     0.00000
    13.01248     1.22445    -0.00000
    17.62043     0.89310     0.00000
    17.62043     0.89424     0.00000
    17.62043     0.89123    -0.00000
    17.62043     0.89050     0.00000
    17.62043     0.89076    -0.00000
    23.36104     0.70151     0.00000
    23.36104     0.70058     0.00000
    23.36104     0.69986    -0.00000
    23.36104     0.69665     0.00000
    23.36104     0.69691    -0.00000
    29.83931     0.70670    -0.00000
    29.83931     0.70554    -0.00000
    29.83931     0.70493     0.00000
    29.83931     0.70142    -0.00000
    29.83931     0.70167     0.00000
    24.00639     0.69667     0.00000
    24.00639     0.69522     0.00000
    24.00639     0.69567    -0.00000
    24.00639     0.69200     0.00000
    24.00639     0.69227    -0.00000
    18.87676     0.86190     0.00000
    18.87676     0.86132     0.00000
    18.87676     0.86256    -0.00000
    18.87676     0.86039     0.00000
    18.87676     0.86080    -0.00000
    15.18094     1.11653     0.00000
    15.18094     1.11955     0.00000
    15.18094     1.11955    -0.00000
    15.18094     1.12286     0.00000
    15.18094     1.12402     0.00000
    14.09586     1.26325    -0.00000
    14.09586     1.27179    -0.00000
    14.09586     1.26598     0.00000
    14.09586     1.27707    -0.00000
    14.09586     1.27973     0.00000
    16.15640     1.14792    -0.00000
    16.15640     1.15452    -0.00000
    16.15640     1.14761     0.00000
    16.15640     1.15466    -0.00000
    16.15640     1.15533     0.00000
    20.43204     0.89310    -0.00000
    20.43204     0.89424    -0.00000
    20.43204     0.89123     0.00000
    20.43204     0.89050    -0.00000
    20.43204     0.89076     0.00000
    11.77949     1.31187    -0.00000
    11.77949     1.32188    -0.00000
    11.77949     1.30739     0.00000
    11.77949     1.31692    -0.00000
    11.77949     1.31648     0.00000
    14.79105     0.96087     0.00000
    14.79105     0.96022    -0.00000
    14.79105     0.95710     0.00000
    14.79105     0.95361    -0.00000
    14.79105     0.95373    -0.00000
    19.82164     0.71869     0.00000
    19.82164     0.71694     0.00000
    19.82164     0.71665    -0.00000
    19.82164     0.71236     0.00000
    19.82164     0.71261    -0.00000
    25.71231     0.69383     0.00000
    25.71231     0.69263     0.00000
    25.71231     0.69263    -0.00000
    25.71231     0.68922     0.00000
    25.71231     0.68952    -0.00000
    31.99144     0.86190    -0.00000
    31.99144     0.86256    -0.00000
    31.99144     0.86132    -0.00000
    31.99144     0.86039     0.00000
    31.99144     0.86080    -0.00000
    38.46927     1.14792    -0.00000
    38.46927     1.15452     0.00000
    38.46927     1.14761     0.00000
    38.46927     1.15466    -0.00000
    38.46927     1.15533     0.00000
    45.06019     1.38744    -0.00000
    45.06019     1.40333    -0.00000
    45.06019     1.38573     0.00000
    45.06019     1.40607    -0.00000
    45.06019     1.40680     0.00000
     8.74188     1.71580     0.00000
     8.74188     1.74129     0.00000
     8.74188     1.71450    -0.00000
     8.74188     1.75033     0.00000
     8.74188     1.75565    -0.00000
     8.81022     1.62741    -0.00000
     8.81022     1.63253    -0.00000
     8.81022     1.61564    -0.00000
     8.81022     1.61440     0.00000
     8.81022     1.61348    -0.00000
    13.15001     1.03668    -0.00000
    13.15001     1.03177    -0.00000
    13.15001     1.03049     0.00000
    13.15001     1.02163    -0.00000
    13.15001     1.02176     0.00000
    19.03495     0.72866    -0.00000
    19.03495     0.72636    -0.00000
    19.03495     0.72636     0.00000
    19.03495     0.72139    -0.00000
    19.03495     0.72163     0.00000
    25.41336     0.69075    -0.00000
    25.41336     0.68967    -0.00000
    25.41336     0.68954     0.00000
    25.41336     0.68628    -0.00000
    25.41336     0.68659     0.00000
    31.99144     0.86190    -0.00000
    31.99144     0.86256     0.00000
    31.99144     0.86132     0.00000
    31.99144     0.86039     0.00000
    31.99144     0.86080    -0.00000
    38.66741     1.21780     0.00000
    38.66741     1.22384     0.00000
    38.66741     1.21772    -0.00000
    38.66741     1.22374     0.00000
    38.66741     1.22445    -0.00000
    10.40135     1.41202    -0.00000
    10.40135     1.41341    -0.00000
    10.40135     1.41341     0.00000
    10.40135     1.41261    -0.00000
    10.40135     1.41309     0.00000
     5.52885     2.55952     0.00000
     5.52885     2.58047    -0.00000
     5.52885     2.58047     0.00000
     5.52885     2.65990     0.00000
     5.52885     2.67958     0.00000
     6.85943     2.06703     0.00000
     6.85943     2.03041     0.00000
     6.85943     2.03041    -0.00000
     6.85943     1.98093    -0.00000
     6.85943     1.98032     0.00000
    12.55543     1.07450     0.00000
    12.55543     1.06671     0.00000
    12.55543     1.06671    -0.00000
    12.55543     1.05459     0.00000
    12.55543     1.05475    -0.00000
    19.03495     0.72866    -0.00000
    19.03495     0.72636    -0.00000
    19.03495     0.72636    -0.00000
    19.03495     0.72139     0.00000
    19.03495     0.72163    -0.00000
    25.71231     0.69383     0.00000
    25.71231     0.69263     0.00000
    25.71231     0.69263    -0.00000
    25.71231     0.68922    -0.00000
    25.71231     0.68952    -0.00000
    32.46568     0.89521    -0.00000
    32.46568     0.89463    -0.00000
    32.46568     0.89463     0.00000
    32.46568     0.89205    -0.00000
    32.46568     0.89239     0.00000
    15.29899     0.93980     0.00000
    15.29899     0.93717    -0.00000
    15.29899     0.93918    -0.00000
    15.29899     0.93398     0.00000
    15.29899     0.93419    -0.00000
     8.81022     1.62741     0.00000
     8.81022     1.61564    -0.00000
     8.81022     1.63253    -0.00000
     8.81022     1.61440     0.00000
     8.81022     1.61348    -0.00000
     3.90949     3.66531     0.00000
     3.90949     3.53812     0.00000
     3.90949     3.83100    -0.00000
     3.90949     3.99381     0.00000
     3.90949     3.89700    -0.00000
     6.85943     2.06703     0.00000
     6.85943     2.03041    -0.00000
     6.85943     2.03041     0.00000
     6.85943     1.98093     0.00000
     6.85943     1.98033     0.00000
    13.15001     1.03668    -0.00000
    13.15001     1.03177    -0.00000
    13.15001     1.03049     0.00000
    13.15001     1.02163    -0.00000
    13.15001     1.02176     0.00000
    19.82164     0.71869    -0.00000
    19.82164     0.71694    -0.00000
    19.82164     0.71665     0.00000
    19.82164     0.71236    -0.00000
    19.82164     0.71261     0.00000
    26.58901     0.70089    -0.00000
    26.58901     0.69940    -0.00000
    26.58901     0.69972     0.00000
    26.58901     0.69593     0.00000
    26.58901     0.69620     0.00000
    21.30807     0.70670    -0.00000
    21.30807     0.70493    -0.00000
    21.30807     0.70554     0.00000
    21.30807     0.70142    -0.00000
    21.30807     0.70167     0.00000
    14.79105     0.96087    -0.00000
    14.79105     0.95710    -0.00000
    14.79105     0.96022     0.00000
    14.79105     0.95361    -0.00000
    14.79105     0.95373     0.00000
     8.81022     1.62741    -0.00000
     8.81022     1.61564     0.00000
     8.81022     1.63253     0.00000
     8.81022     1.61440    -0.00000
     8.81022     1.61348     0.00000
     5.52885     2.55952     0.00000
     5.52885     2.58047     0.00000
     5.52885     2.58047    -0.00000
     5.52885     2.65990     0.00000
     5.52885     2.67958     0.00000
     8.81022     1.62741     0.00000
     8.81022     1.63253     0.00000
     8.81022     1.61564    -0.00000
     8.81022     1.61440     0.00000
     8.81022     1.61348    -0.00000
    14.79105     0.96087    -0.00000
    14.79105     0.96022     0.00000
    14.79105     0.95710    -0.00000
    14.79105     0.95361     0.00000
    14.79105     0.95373    -0.00000
    21.30807     0.70670    -0.00000
    21.30807     0.70554     0.00000
    21.30807     0.70493    -0.00000
    21.30807     0.70142     0.00000
    21.30807     0.70167    -0.00000
    27.71483     0.70151     0.00000
    27.71483     0.70058     0.00000
    27.71483     0.69986     0.00000
    27.71483     0.69665     0.00000
    27.71483     0.69691    -0.00000
    21.30807     0.70670     0.00000
    21.30807     0.70493     0.00000
    21.30807     0.70554    -0.00000
    21.30807     0.70142     0.00000
    21.30807     0.70167    -0.00000
    15.29899     0.93980     0.00000
    15.29899     0.93717     0.00000
    15.29899     0.93918    -0.00000
    15.29899     0.93398     0.00000
    15.29899     0.93419    -0.00000
    10.40135     1.41202    -0.00000
    10.40135     1.41341     0.00000
    10.40135     1.41341    -0.00000
    10.40135     1.41261     0.00000
    10.40135     1.41309    -0.00000
     8.74188     1.71580     0.00000
     8.74188     1.74129    -0.00000
     8.74188     1.71450     0.00000
     8.74188     1.75034    -0.00000
     8.74188     1.75565     0.00000
    11.77949     1.31187     0.00000
    11.77949     1.32188    -0.00000
    11.77949     1.30739     0.00000
    11.77949     1.31692    -0.00000
    11.77949     1.31648     0.00000
    17.18126     0.90743     0.00000
    17.18126     0.90881    -0.00000
    17.18126     0.90491     0.00000
    17.18126     0.90429    -0.00000
    17.18126     0.90446     0.00000
    34.29713     0.90743    -0.00000
    34.29713     0.90881    -0.00000
    34.29713     0.90491    -0.00000
    34.29713     0.90429     0.00000
    34.29713     0.90446    -0.00000
    27.98921     0.70670    -0.00000
    27.98921     0.70554    -0.00000
    27.98921     0.70493     0.00000
    27.98921     0.70142    -0.00000
    27.98921     0.70167     0.00000
    22.01368     0.70089    -0.00000
    22.01368     0.69940    -0.00000
    22.01368     0.69972     0.00000
    22.01368     0.69593    -0.00000
    22.01368     0.69620     0.00000
    16.73056     0.89521    -0.00000
    16.73056     0.89463     0.00000
    16.73056     0.89463     0.00000
    16.73056     0.89205    -0.00000
    16.73056     0.89239     0.00000
    13.01248     1.21780    -0.00000
    13.01248     1.22384    -0.00000
    13.01248     1.21772     0.00000
    13.01248     1.22374    -0.00000
    13.01248     1.22445     0.00000
    12.36289     1.38744     0.00000
    12.36289     1.40333     0.00000
    12.36289     1.38573    -0.00000
    12.36289     1.40607     0.00000
    12.36289     1.40680    -0.00000
    15.18094     1.21017     0.00000
    15.18094     1.21961     0.00000
    15.18094     1.20729    -0.00000
    15.18094     1.21725     0.00000
    15.18094     1.21710    -0.00000
    11.72847     1.45130     0.00000
    11.72847     1.47224     0.00000
    11.72847     1.44596    -0.00000
    11.72847     1.47464     0.00000
    11.72847     1.47113    -0.00000
    11.77949     1.31187    -0.00000
    11.77949     1.32188     0.00000
    11.77949     1.30739    -0.00000
    11.77949     1.31692     0.00000
    11.77949     1.31648     0.00000
    15.29899     0.93980     0.00000
    15.29899     0.93918     0.00000
    15.29899     0.93717     0.00000
    15.29899     0.93398    -0.00000
    15.29899     0.93419     0.00000
    20.57828     0.71063    -0.00000
    20.57828     0.70900    -0.00000
    20.57828     0.70900     0.00000
    20.57828     0.70495    -0.00000
    20.57828     0.70520     0.00000
    26.58901     0.70089    -0.00000
    26.58901     0.69972    -0.00000
    26.58901     0.69940     0.00000
    26.58901     0.69593    -0.00000
    26.58901     0.69620     0.00000
    32.93309     0.89310     0.00000
    32.93309     0.89424     0.00000
    32.93309     0.89123    -0.00000
    32.93309     0.89050     0.00000
    32.93309     0.89076    -0.00000
    39.45003     1.21017     0.00000
    39.45003     1.21961     0.00000
    39.45003     1.20729    -0.00000
    39.45003     1.21725     0.00000
    39.45003     1.21710    -0.00000
    11.77949     1.31187    -0.00000
    11.77949     1.32188    -0.00000
    11.77949     1.30739     0.00000
    11.77949     1.31692    -0.00000
    11.77949     1.31648     0.00000
     7.81898     1.90718    -0.00000
     7.81898     1.95631    -0.00000
     7.81898     1.88892     0.00000
     7.81898     1.96545    -0.00000
     7.81898     1.94908     0.00000
     8.81022     1.62741     0.00000
     8.81022     1.63253    -0.00000
     8.81022     1.61564    -0.00000
     8.81022     1.61440    -0.00000
     8.81022     1.61348     0.00000
    13.71885     1.00481     0.00000
    13.71885     1.00079     0.00000
    13.71885     1.00079    -0.00000
    13.71885     0.99322     0.00000
    13.71885     0.99338    -0.00000
    19.82164     0.71869     0.00000
    19.82164     0.71665     0.00000
    19.82164     0.71694    -0.00000
    19.82164     0.71236     0.00000
    19.82164     0.71261    -0.00000
    26.30002     0.69667     0.00000
    26.30002     0.69567     0.00000
    26.30002     0.69522    -0.00000
    26.30002     0.69200     0.00000
    26.30002     0.69227    -0.00000
    32.93309     0.89310     0.00000
    32.93309     0.89424     0.00000
    32.93309     0.89123     0.00000
    32.93309     0.89050    -0.00000
    32.93309     0.89076     0.00000
    15.29899     0.93980     0.00000
    15.29899     0.93918     0.00000
    15.29899     0.93717    -0.00000
    15.29899     0.93398     0.00000
    15.29899     0.93419    -0.00000
     8.81022     1.62741     0.00000
     8.81022     1.63253     0.00000
     8.81022     1.61564    -0.00000
     8.81022     1.61440     0.00000
     8.81022     1.61348    -0.00000
     3.90949     3.66531     0.00000
     3.90949     3.83100     0.00000
     3.90949     3.53812    -0.00000
     3.90949     3.99381     0.00000
     3.90949     3.89700    -0.00000
     6.85943     2.06703    -0.00000
     6.85943     2.03041    -0.00000
     6.85943     2.03041    -0.00000
     6.85943     1.98093     0.00000
     6.85943     1.98033     0.00000
    13.15001     1.03668     0.00000
    13.15001     1.03049     0.00000
    13.15001     1.03177     0.00000
    13.15001     1.02163    -0.00000
    13.15001     1.02176     0.00000
    19.82164     0.71869    -0.00000
    19.82164     0.71665    -0.00000
    19.82164     0.71694     0.00000
    19.82164     0.71236    -0.00000
    19.82164     0.71261     0.00000
    26.58901     0.70089    -0.00000
    26.58901     0.69972    -0.00000
    26.58901     0.69940    -0.00000
    26.58901     0.69593    -0.00000
    26.58901     0.69620    -0.00000
    20.57828     0.71063    -0.00000
    20.57828     0.70900    -0.00000
    20.57828     0.70900     0.00000
    20.57828     0.70495    -0.00000
    20.57828     0.70520     0.00000
    13.71885     1.00481    -0.00000
    13.71885     1.00079    -0.00000
    13.71885     1.00079     0.00000
    13.71885     0.99322    -0.00000
    13.71885     0.99338     0.00000
     6.85943     2.06703    -0.00000
     6.85943     2.03041    -0.00000
     6.85943     2.03041     0.00000
     6.85943     1.98093    -0.00000
     6.85943     1.98033     0.00000
     0.00000    13.25382     0.00000
     0.00000    13.33267     0.00000
     0.00000    13.33267     0.00000
     0.00000    15.72201     0.00000
     0.00000    14.78111    -0.00000
     6.85943     2.06703     0.00000
     6.85943     2.03041     0.00000
     6.85943     2.03041    -0.00000
     6.85943     1.98093     0.00000
     6.85943     1.98033    -0.00000
    13.71885     1.00481     0.00000
    13.71885     1.00079     0.00000
    13.71885     1.00079    -0.00000
    13.71885     0.99322     0.00000
    13.71885     0.99338    -0.00000
    20.57828     0.71063     0.00000
    20.57828     0.70900     0.00000
    20.57828     0.70900    -0.00000
    20.57828     0.70495     0.00000
    20.57828     0.70520    -0.00000
    26.58901     0.70089     0.00000
    26.58901     0.69972    -0.00000
    26.58901     0.69940    -0.00000
    26.58901     0.69593     0.00000
    26.58901     0.69620    -0.00000
    19.82164     0.71869     0.00000
    19.82164     0.71665     0.00000
    19.82164     0.71694    -0.00000
    19.82164     0.71236     0.00000
    19.82164     0.71261    -0.00000
    13.15001     1.03668     0.00000
    13.15001     1.03049     0.00000
    13.15001     1.03177    -0.00000
    13.15001     1.02163     0.00000
    13.15001     1.02176    -0.00000
     6.85943     2.06703     0.00000
     6.85943     2.03041     0.00000
     6.85943     2.03041     0.00000
     6.85943     1.98093    -0.00000
     6.85943     1.98033    -0.00000
     3.90949     3.66531    -0.00000
     3.90949     3.83100     0.00000
     3.90949     3.53812     0.00000
     3.90949     3.99381    -0.00000
     3.90949     3.89700     0.00000
     8.81022     1.62741    -0.00000
     8.81022     1.63253     0.00000
     8.81022     1.61564     0.00000
     8.81022     1.61440    -0.00000
     8.81022     1.61348     0.00000
    15.29899     0.93980    -0.00000
    15.29899     0.93918    -0.00000
    15.29899     0.93717     0.00000
    15.29899     0.93398    -0.00000
    15.29899     0.93419     0.00000
    32.93309     0.89310     0.00000
    32.93309     0.89424     0.00000
    32.93309     0.89123    -0.00000
    32.93309     0.89050     0.00000
    32.93309     0.89076    -0.00000
    26.30002     0.69667    -0.00000
    26.30002     0.69567    -0.00000
    26.30002     0.69522     0.00000
    26.30002     0.69200    -0.00000
    26.30002     0.69227     0.00000
    19.82164     0.71869    -0.00000
    19.82164     0.71665    -0.00000
    19.82164     0.71694     0.00000
    19.82164     0.71236    -0.00000
    19.82164     0.71261     0.00000
    13.71885     1.00481    -0.00000
    13.71885     1.00079    -0.00000
    13.71885     1.00079     0.00000
    13.71885     0.99322    -0.00000
    13.71885     0.99338     0.00000
     8.81022     1.62741     0.00000
     8.81022     1.63253    -0.00000
     8.81022     1.61564     0.00000
     8.81022     1.61440     0.00000
     8.81022     1.61348     0.00000
     7.81898     1.90718     0.00000
     7.81898     1.95631    -0.00000
     7.81898     1.88892    -0.00000
     7.81898     1.96545     0.00000
     7.81898     1.94908    -0.00000
    11.77949     1.31187     0.00000
    11.77949     1.32188    -0.00000
    11.77949     1.30739    -0.00000
    11.77949     1.31692     0.00000
    11.77949     1.31648    -0.00000
    39.45003     1.21017    -0.00000
    39.45003     1.21961    -0.00000
    39.45003     1.20729     0.00000
    39.45003     1.21725    -0.00000
    39.45003     1.21710     0.00000
    32.93309     0.89310     0.00000
    32.93309     0.89424    -0.00000
    32.93309     0.89123    -0.00000
    32.93309     0.89050    -0.00000
    32.93309     0.89076     0.00000
    26.58901     0.70089     0.00000
    26.58901     0.69972     0.00000
    26.58901     0.69940    -0.00000
    26.58901     0.69593     0.00000
    26.58901     0.69620    -0.00000
    20.57828     0.71063     0.00000
    20.57828     0.70900    -0.00000
    20.57828     0.70900    -0.00000
    20.57828     0.70495     0.00000
    20.57828     0.70520    -0.00000
    15.29899     0.93980     0.00000
    15.29899     0.93918     0.00000
    15.29899     0.93717    -0.00000
    15.29899     0.93398     0.00000
    15.29899     0.93419    -0.00000
    11.77949     1.31187     0.00000
    11.77949     1.32188     0.00000
    11.77949     1.30739     0.00000
    11.77949     1.31692     0.00000
    11.77949     1.31648     0.00000
    11.72847     1.45130    -0.00000
    11.72847     1.47224    -0.00000
    11.72847     1.44596     0.00000
    11.72847     1.47464    -0.00000
    11.72847     1.47113     0.00000
    15.18094     1.21017     0.00000
    15.18094     1.21961    -0.00000
    15.18094     1.20729     0.00000
    15.18094     1.21725    -0.00000
    15.18094     1.21710     0.00000
    12.36289     1.38744    -0.00000
    12.36289     1.40333    -0.00000
    12.36289     1.38573     0.00000
    12.36289     1.40607    -0.00000
    12.36289     1.40680     0.00000
    13.01248     1.21780     0.00000
    13.01248     1.22384     0.00000
    13.01248     1.21772     0.00000
    13.01248     1.22374     0.00000
    13.01248     1.22445    -0.00000
    16.73056     0.89521     0.00000
    16.73056     0.89463     0.00000
    16.73056     0.89463    -0.00000
    16.73056     0.89205     0.00000
    16.73056     0.89239    -0.00000
    22.01368     0.70089     0.00000
    22.01368     0.69940     0.00000
    22.01368     0.69972    -0.00000
    22.01368     0.69593     0.00000
    22.01368     0.69620    -0.00000
    27.98921     0.70670     0.00000
    27.98921     0.70554     0.00000
    27.98921     0.70493    -0.00000
    27.98921     0.70142     0.00000
    27.98921     0.70167    -0.00000
    34.29713     0.90743    -0.00000
    34.29713     0.90881    -0.00000
    34.29713     0.90491     0.00000
    34.29713     0.90429    -0.00000
    34.29713     0.90446     0.00000
    17.18126     0.90743     0.00000
    17.18126     0.90881     0.00000
    17.18126     0.90491    -0.00000
    17.18126     0.90429     0.00000
    17.18126     0.90446    -0.00000
    11.77949     1.31187     0.00000
    11.77949     1.32188     0.00000
    11.77949     1.30739    -0.00000
    11.77949     1.31692     0.00000
    11.77949     1.31648    -0.00000
     8.74188     1.71580     0.00000
     8.74188     1.74129     0.00000
     8.74188     1.71450    -0.00000
     8.74188     1.75034     0.00000
     8.74188     1.75565    -0.00000
    10.40135     1.41202    -0.00000
    10.40135     1.41341    -0.00000
    10.40135     1.41341     0.00000
    10.40135     1.41261    -0.00000
    10.40135     1.41309     0.00000
    15.29899     0.93980    -0.00000
    15.29899     0.93717    -0.00000
    15.29899     0.93918     0.00000
    15.29899     0.93398    -0.00000
    15.29899     0.93419     0.00000
    21.30807     0.70670     0.00000
    21.30807     0.70493    -0.00000
    21.30807     0.70554     0.00000
    21.30807     0.70142    -0.00000
    21.30807     0.70167     0.00000
    27.71483     0.70151    -0.00000
    27.71483     0.70058     0.00000
    27.71483     0.69986     0.00000
    27.71483     0.69665    -0.00000
    27.71483     0.69691    -0.00000
    21.30807     0.70670    -0.00000
    21.30807     0.70554    -0.00000
    21.30807     0.70493     0.00000
    21.30807     0.70142    -0.00000
    21.30807     0.70167     0.00000
    14.79105     0.96087    -0.00000
    14.79105     0.96022    -0.00000
    14.79105     0.95710     0.00000
    14.79105     0.95361    -0.00000
    14.79105     0.95373     0.00000
     8.81022     1.62741    -0.00000
     8.81022     1.63253    -0.00000
     8.81022     1.61564     0.00000
     8.81022     1.61440    -0.00000
     8.81022     1.61348     0.00000
     5.52885     2.55952    -0.00000
     5.52885     2.58047     0.00000
     5.52885     2.58047    -0.00000
     5.52885     2.65990    -0.00000
     5.52885     2.67958    -0.00000
     8.81022     1.62741     0.00000
     8.81022     1.61564     0.00000
     8.81022     1.63253    -0.00000
     8.81022     1.61440     0.00000
     8.81022     1.61348    -0.00000
    14.79105     0.96087     0.00000
    14.79105     0.95710    -0.00000
    14.79105     0.96022    -0.00000
    14.79105     0.95361     0.00000
    14.79105     0.95373    -0.00000
    21.30807     0.70670     0.00000
    21.30807     0.70493     0.00000
    21.30807     0.70554    -0.00000
    21.30807     0.70142     0.00000
    21.30807     0.70167    -0.00000
    26.58901     0.70089     0.00000
    26.58901     0.69940     0.00000
    26.58901     0.69972    -0.00000
    26.58901     0.69593    -0.00000
    26.58901     0.69620    -0.00000
    19.82164     0.71869     0.00000
    19.82164     0.71694     0.00000
    19.82164     0.71665    -0.00000
    19.82164     0.71236     0.00000
    19.82164     0.71261    -0.00000
    13.15001     1.03668     0.00000
    13.15001     1.03177     0.00000
    13.15001     1.03049    -0.00000
    13.15001     1.02163     0.00000
    13.15001     1.02176    -0.00000
     6.85943     2.06703     0.00000
     6.85943     2.03041    -0.00000
     6.85943     2.03041    -0.00000
     6.85943     1.98093    -0.00000
     6.85943     1.98033    -0.00000
     3.90949     3.66531    -0.00000
     3.90949     3.53812    -0.00000
     3.90949     3.83100     0.00000
     3.90949     3.99381    -0.00000
     3.90949     3.89700     0.00000
     8.81022     1.62741    -0.00000
     8.81022     1.61564    -0.00000
     8.81022     1.63253     0.00000
     8.81022     1.61440    -0.00000
     8.81022     1.61348     0.00000
    15.29899     0.93980    -0.00000
    15.29899     0.93717    -0.00000
    15.29899     0.93918     0.00000
    15.29899     0.93398    -0.00000
    15.29899     0.93419     0.00000
    32.46568     0.89521     0.00000
    32.46568     0.89463    -0.00000
    32.46568     0.89463    -0.00000
    32.46568     0.89205     0.00000
    32.46568     0.89239    -0.00000
    25.71231     0.69383     0.00000
    25.71231     0.69263    -0.00000
    25.71231     0.69263     0.00000
    25.71231     0.68922     0.00000
    25.71231     0.68952     0.00000
    19.03495     0.72866    -0.00000
    19.03495     0.72636    -0.00000
    19.03495     0.72636     0.00000
    19.03495     0.72139    -0.00000
    19.03495     0.72163     0.00000
    12.55543     1.07450    -0.00000
    12.55543     1.06671     0.00000
    12.55543     1.06671     0.00000
    12.55543     1.05459    -0.00000
    12.55543     1.05475     0.00000
     6.85943     2.06703    -0.00000
     6.85943     2.03041     0.00000
     6.85943     2.03041     0.00000
     6.85943     1.98093     0.00000
     6.85943     1.98032    -0.00000
     5.52885     2.55952    -0.00000
     5.52885     2.58047     0.00000
     5.52885     2.58047    -0.00000
     5.52885     2.65990    -0.00000
     5.52885     2.67958    -0.00000
    10.40135     1.41202     0.00000
    10.40135     1.41341     0.00000
    10.40135     1.41341    -0.00000
    10.40135     1.41261     0.00000
    10.40135     1.41309    -0.00000
    38.66741     1.21780    -0.00000
    38.66741     1.22384    -0.00000
    38.66741     1.21772     0.00000
    38.66741     1.22374    -0.00000
    38.66741     1.22445     0.00000
    31.99144     0.86190    -0.00000
    31.99144     0.86256    -0.00000
    31.99144     0.86132    -0.00000
    31.99144     0.86039    -0.00000
    31.99144     0.86080    -0.00000
    25.41336     0.69075     0.00000
    25.41336     0.68967     0.00000
    25.41336     0.68954    -0.00000
    25.41336     0.68628     0.00000
    25.41336     0.68659    -0.00000
    19.03495     0.72866     0.00000
    19.03495     0.72636     0.00000
    19.03495     0.72636    -0.00000
    19.03495     0.72139     0.00000
    19.03495     0.72163    -0.00000
    13.15001     1.03668    -0.00000
    13.15001     1.03177     0.00000
    13.15001     1.03049    -0.00000
    13.15001     1.02163     0.00000
    13.15001     1.02176    -0.00000
     8.81022     1.62741     0.00000
     8.81022     1.63253    -0.00000
     8.81022     1.61564     0.00000
     8.81022     1.61440    -0.00000
     8.81022     1.61348    -0.00000
     8.74188     1.71580    -0.00000
     8.74188     1.74129    -0.00000
     8.74188     1.71450     0.00000
     8.74188     1.75033    -0.00000
     8.74188     1.75565     0.00000
    45.06019     1.38744     0.00000
    45.06019     1.40333     0.00000
    45.06019     1.38573    -0.00000
    45.06019     1.40607     0.00000
    45.06019     1.40680    -0.00000
    38.46927     1.14792     0.00000
    38.46927     1.15452     0.00000
    38.46927     1.14761    -0.00000
    38.46927     1.15466     0.00000
    38.46927     1.15533    -0.00000
    31.99144     0.86190     0.00000
    31.99144     0.86256     0.00000
    31.99144     0.86132     0.00000
    31.99144     0.86039    -0.00000
    31.99144     0.86080     0.00000
    25.71231     0.69383    -0.00000
    25.71231     0.69263    -0.00000
    25.71231     0.69263     0.00000
    25.71231     0.68922    -0.00000
    25.71231     0.68952     0.00000
    19.82164     0.71869    -0.00000
    19.82164     0.71694    -0.00000
    19.82164     0.71665     0.00000
    19.82164     0.71236    -0.00000
    19.82164     0.71261     0.00000
    14.79105     0.96087     0.00000
    14.79105     0.96022    -0.00000
    14.79105     0.95710     0.00000
    14.79105     0.95361     0.00000
    14.79105     0.95373     0.00000
    11.77949     1.31187     0.00000
    11.77949     1.32188    -0.00000
    11.77949     1.30739    -0.00000
    11.77949     1.31692     0.00000
    11.77949     1.31648    -0.00000
    20.43204     0.89310    -0.00000
    20.43204     0.89424     0.00000
    20.43204     0.89123    -0.00000
    20.43204     0.89050     0.00000
    20.43204     0.89076    -0.00000
    16.15640     1.14792     0.00000
    16.15640     1.15452     0.00000
    16.15640     1.14761    -0.00000
    16.15640     1.15466     0.00000
    16.15640     1.15533    -0.00000
    14.09586     1.26325     0.00000
    14.09586     1.27179    -0.00000
    14.09586     1.26598    -0.00000
    14.09586     1.27707     0.00000
    14.09586     1.27973    -0.00000
    15.18094     1.11653     0.00000
    15.18094     1.11955    -0.00000
    15.18094     1.11955     0.00000
    15.18094     1.12286    -0.00000
    15.18094     1.12402     0.00000
    18.87676     0.86190    -0.00000
    18.87676     0.86132    -0.00000
    18.87676     0.86256     0.00000
    18.87676     0.86039    -0.00000
    18.87676     0.86080     0.00000
    24.00639     0.69667    -0.00000
    24.00639     0.69522    -0.00000
    24.00639     0.69567     0.00000
    24.00639     0.69200    -0.00000
    24.00639     0.69227     0.00000
    29.83931     0.70670     0.00000
    29.83931     0.70554     0.00000
    29.83931     0.70493     0.00000
    29.83931     0.70142     0.00000
    29.83931     0.70167     0.00000
    23.36104     0.70151    -0.00000
    23.36104     0.70058     0.00000
    23.36104     0.69986     0.00000
    23.36104     0.69665    -0.00000
    23.36104     0.69691     0.00000
    17.62043     0.89310    -0.00000
    17.62043     0.89424    -0.00000
    17.62043     0.89123     0.00000
    17.62043     0.89050    -0.00000
    17.62043     0.89076     0.00000
    13.01248     1.21780     0.00000
    13.01248     1.22384    -0.00000
    13.01248     1.21772     0.00000
    13.01248     1.22374    -0.00000
    13.01248     1.22445     0.00000
    11.05770     1.42809    -0.00000
    11.05770     1.43576    -0.00000
    11.05770     1.43576    -0.00000
    11.05770     1.44756     0.00000
    11.05770     1.45284    -0.00000
    13.01248     1.21780     0.00000
    13.01248     1.21772     0.00000
    13.01248     1.22384    -0.00000
    13.01248     1.22374     0.00000
    13.01248     1.22445    -0.00000
    17.62043     0.89310     0.00000
    17.62043     0.89123     0.00000
    17.62043     0.89424    -0.00000
    17.62043     0.89050     0.00000
    17.62043     0.89076    -0.00000
    23.36104     0.70151     0.00000
    23.36104     0.69986     0.00000
    23.36104     0.70058    -0.00000
    23.36104     0.69665     0.00000
    23.36104     0.69691    -0.00000
    27.71483     0.70151    -0.00000
    27.71483     0.69986     0.00000
    27.71483     0.70058     0.00000
    27.71483     0.69665     0.00000
    27.71483     0.69691     0.00000
    21.30807     0.70670     0.00000
    21.30807     0.70554     0.00000
    21.30807     0.70493    -0.00000
    21.30807     0.70142     0.00000
    21.30807     0.70167    -0.00000
    15.29899     0.93980     0.00000
    15.29899     0.93918     0.00000
    15.29899     0.93717    -0.00000
    15.29899     0.93398     0.00000
    15.29899     0.93419    -0.00000
    10.40135     1.41202     0.00000
    10.40135     1.41341     0.00000
    10.40135     1.41341    -0.00000
    10.40135     1.41261     0.00000
    10.40135     1.41309    -0.00000
     8.74188     1.71580    -0.00000
     8.74188     1.71450    -0.00000
     8.74188     1.74129     0.00000
     8.74188     1.75034    -0.00000
     8.74188     1.75565     0.00000
    11.77949     1.31187    -0.00000
    11.77949     1.30739    -0.00000
    11.77949     1.32188     0.00000
    11.77949     1.31692    -0.00000
    11.77949     1.31648     0.00000
    17.18126     0.90743     0.00000
    17.18126     0.90491    -0.00000
    17.18126     0.90881     0.00000
    17.18126     0.90429    -0.00000
    17.18126     0.90446     0.00000
    32.93309     0.89310     0.00000
    32.93309     0.89123     0.00000
    32.93309     0.89424    -0.00000
    32.93309     0.89050     0.00000
    32.93309     0.89076    -0.00000
    26.30002     0.69667    -0.00000
    26.30002     0.69522    -0.00000
    26.30002     0.69567     0.00000
    26.30002     0.69200     0.00000
    26.30002     0.69227     0.00000
    19.82164     0.71869    -0.00000
    19.82164     0.71694    -0.00000
    19.82164     0.71665     0.00000
    19.82164     0.71236    -0.00000
    19.82164     0.71261     0.00000
    13.71885     1.00481    -0.00000
    13.71885     1.00079    -0.00000
    13.71885     1.00079     0.00000
    13.71885     0.99322    -0.00000
    13.71885     0.99338    -0.00000
     8.81022     1.62741    -0.00000
     8.81022     1.61564    -0.00000
     8.81022     1.63253    -0.00000
     8.81022     1.61440     0.00000
     8.81022     1.61348    -0.00000
     7.81898     1.90718     0.00000
     7.81898     1.88892     0.00000
     7.81898     1.95631    -0.00000
     7.81898     1.96545     0.00000
     7.81898     1.94908    -0.00000
    11.77949     1.31187    -0.00000
    11.77949     1.30739    -0.00000
    11.77949     1.32188    -0.00000
    11.77949     1.31692     0.00000
    11.77949     1.31648    -0.00000
    38.66741     1.21780     0.00000
    38.66741     1.21772    -0.00000
    38.66741     1.22384     0.00000
    38.66741     1.22374    -0.00000
    38.66741     1.22445     0.00000
    31.99144     0.86190     0.00000
    31.99144     0.86132     0.00000
    31.99144     0.86256    -0.00000
    31.99144     0.86039     0.00000
    31.99144     0.86080     0.00000
    25.41336     0.69075     0.00000
    25.41336     0.68954     0.00000
    25.41336     0.68967    -0.00000
    25.41336     0.68628     0.00000
    25.41336     0.68659    -0.00000
    19.03495     0.72866    -0.00000
    19.03495     0.72636     0.00000
    19.03495     0.72636    -0.00000
    19.03495     0.72139     0.00000
    19.03495     0.72163    -0.00000
    13.15001     1.03668     0.00000
    13.15001     1.03049     0.00000
    13.15001     1.03177    -0.00000
    13.15001     1.02163    -0.00000
    13.15001     1.02176    -0.00000
     8.81022     1.62741    -0.00000
     8.81022     1.61564     0.00000
     8.81022     1.63253     0.00000
     8.81022     1.61440    -0.00000
     8.81022     1.61348     0.00000
     8.74188     1.71580    -0.00000
     8.74188     1.71450    -0.00000
     8.74188     1.74129     0.00000
     8.74188     1.75033    -0.00000
     8.74188     1.75565     0.00000
    44.71971     1.42808     0.00000
    44.71971     1.43576     0.00000
    44.71971     1.43576    -0.00000
    44.71971     1.44756     0.00000
    44.71971     1.45284    -0.00000
    38.06989     1.11653     0.00000
    38.06989     1.11955     0.00000
    38.06989     1.11955    -0.00000
    38.06989     1.12286     0.00000
    38.06989     1.12402    -0.00000
    31.51006     0.83782     0.00000
    31.51006     0.83813    -0.00000
    31.51006     0.83813     0.00000
    31.51006     0.83706    -0.00000
    31.51006     0.83757     0.00000
    25.11085     0.68816    -0.00000
    25.11085     0.68704    -0.00000
    25.11085     0.68704     0.00000
    25.11085     0.68378    -0.00000
    25.11085     0.68409     0.00000
    19.03495     0.72866    -0.00000
    19.03495     0.72636    -0.00000
    19.03495     0.72636     0.00000
    19.03495     0.72139    -0.00000
    19.03495     0.72163     0.00000
    13.71885     1.00481     0.00000
    13.71885     1.00079    -0.00000
    13.71885     1.00079     0.00000
    13.71885     0.99322    -0.00000
    13.71885     0.99338     0.00000
    10.40135     1.41202     0.00000
    10.40135     1.41341     0.00000
    10.40135     1.41341    -0.00000
    10.40135     1.41261    -0.00000
    10.40135     1.41309    -0.00000
    50.97686     1.21780     0.00000
    50.97686     1.22384    -0.00000
    50.97686     1.21772     0.00000
    50.97686     1.22374    -0.00000
    50.97686     1.22445     0.00000
    44.37662     1.26325    -0.00000
    44.37662     1.27179    -0.00000
    44.37662     1.26598     0.00000
    44.37662     1.27707    -0.00000
    44.37662     1.27973     0.00000
    37.86862     1.07592    -0.00000
    37.86862     1.07983     0.00000
    37.86862     1.07801     0.00000
    37.86862     1.08229     0.00000
    37.86862     1.08347     0.00000
    31.51006     0.83782     0.00000
    31.51006     0.83813     0.00000
    31.51006     0.83813    -0.00000
    31.51006     0.83706     0.00000
    31.51006     0.83757    -0.00000
    25.41336     0.69075     0.00000
    25.41336     0.68954     0.00000
    25.41336     0.68967    -0.00000
    25.41336     0.68628     0.00000
    25.41336     0.68659    -0.00000
    19.82164     0.71869     0.00000
    19.82164     0.71694     0.00000
    19.82164     0.71665    -0.00000
    19.82164     0.71236     0.00000
    19.82164     0.71261    -0.00000
    15.29900     0.93980    -0.00000
    15.29900     0.93918     0.00000
    15.29900     0.93716     0.00000
    15.29900     0.93398    -0.00000
    15.29900     0.93419    -0.00000
    26.43065     0.70089    -0.00000
    26.43065     0.69972    -0.00000
    26.43065     0.69940     0.00000
    26.43065     0.69593    -0.00000
    26.43065     0.69620     0.00000
    21.52489     0.86190    -0.00000
    21.52489     0.86256    -0.00000
    21.52489     0.86132     0.00000
    21.52489     0.86039    -0.00000
    21.52489     0.86080     0.00000
    17.94897     1.07592     0.00000
    17.94897     1.07983    -0.00000
    17.94897     1.07801     0.00000
    17.94897     1.08229    -0.00000
    17.94897     1.08347     0.00000
    16.58655     1.17593    -0.00000
    16.58655     1.18072     0.00000
    16.58655     1.18072     0.00000
    16.58655     1.18728     0.00000
    16.58655     1.18990    -0.00000
    17.94897     1.07592     0.00000
    17.94897     1.07801     0.00000
    17.94897     1.07983    -0.00000
    17.94897     1.08229     0.00000
    17.94897     1.08347    -0.00000
    21.52489     0.86190     0.00000
    21.52489     0.86132    -0.00000
    21.52489     0.86256    -0.00000
    21.52489     0.86039     0.00000
    21.52489     0.86080    -0.00000
    26.43065     0.70089     0.00000
    26.43065     0.69940     0.00000
    26.43065     0.69972    -0.00000
    26.43065     0.69593     0.00000
    26.43065     0.69620    -0.00000
    29.83931     0.70670    -0.00000
    29.83931     0.70493     0.00000
    29.83931     0.70554    -0.00000
    29.83931     0.70142     0.00000
    29.83931     0.70167     0.00000
    24.00639     0.69667     0.00000
    24.00639     0.69567     0.00000
    24.00639     0.69522    -0.00000
    24.00639     0.69200     0.00000
    24.00639     0.69227    -0.00000
    18.87676     0.86190     0.00000
    18.87676     0.86256     0.00000
    18.87676     0.86132    -0.00000
    18.87676     0.86039     0.00000
    18.87676     0.86080    -0.00000
    15.18094     1.11653     0.00000
    15.18094     1.11955     0.00000
    15.18094     1.11955    -0.00000
    15.18094     1.12286     0.00000
    15.18094     1.12402    -0.00000
    14.09586     1.26325    -0.00000
    14.09586     1.26598    -0.00000
    14.09586     1.27179     0.00000
    14.09586     1.27707    -0.00000
    14.09586     1.27973     0.00000
    16.15640     1.14792    -0.00000
    16.15640     1.14761    -0.00000
    16.15640     1.15452     0.00000
    16.15640     1.15466    -0.00000
    16.15640     1.15533     0.00000
    20.43204     0.89310    -0.00000
    20.43204     0.89123    -0.00000
    20.43204     0.89424     0.00000
    20.43204     0.89050    -0.00000
    20.43204     0.89076     0.00000
    34.29713     0.90743     0.00000
    34.29713     0.90491     0.00000
    34.29713     0.90881    -0.00000
    34.29713     0.90429     0.00000
    34.29713     0.90446    -0.00000
    27.98921     0.70670     0.00000
    27.98921     0.70493    -0.00000
    27.98921     0.70554     0.00000
    27.98921     0.70142    -0.00000
    27.98921     0.70167     0.00000
    22.01368     0.70089     0.00000
    22.01368     0.69972    -0.00000
    22.01368     0.69940     0.00000
    22.01368     0.69593    -0.00000
    22.01368     0.69620     0.00000
    16.73056     0.89521    -0.00000
    16.73056     0.89463     0.00000
    16.73056     0.89463     0.00000
    16.73056     0.89205    -0.00000
    16.73056     0.89239     0.00000
    13.01248     1.21780     0.00000
    13.01248     1.21772    -0.00000
    13.01248     1.22384     0.00000
    13.01248     1.22374     0.00000
    13.01248     1.22445     0.00000
    12.36289     1.38744     0.00000
    12.36289     1.38573     0.00000
    12.36289     1.40333    -0.00000
    12.36289     1.40607     0.00000
    12.36289     1.40680    -0.00000
    15.18094     1.21017     0.00000
    15.18094     1.20729     0.00000
    15.18094     1.21961    -0.00000
    15.18094     1.21725     0.00000
    15.18094     1.21710    -0.00000
    39.45003     1.21017     0.00000
    39.45003     1.20729     0.00000
    39.45003     1.21961     0.00000
    39.45003     1.21725    -0.00000
    39.45003     1.21710     0.00000
    32.93309     0.89310     0.00000
    32.93309     0.89123     0.00000
    32.93309     0.89424     0.00000
    32.93309     0.89050     0.00000
    32.93309     0.89076    -0.00000
    26.58901     0.70089     0.00000
    26.58901     0.69940     0.00000
    26.58901     0.69972    -0.00000
    26.58901     0.69593     0.00000
    26.58901     0.69620    -0.00000
    20.57828     0.71063     0.00000
    20.57828     0.70900     0.00000
    20.57828     0.70900    -0.00000
    20.57828     0.70495     0.00000
    20.57828     0.70520    -0.00000
    15.29899     0.93980    -0.00000
    15.29899     0.93717     0.00000
    15.29899     0.93918    -0.00000
    15.29899     0.93398     0.00000
    15.29899     0.93419    -0.00000
    11.77949     1.31187    -0.00000
    11.77949     1.30739    -0.00000
    11.77949     1.32188     0.00000
    11.77949     1.31692     0.00000
    11.77949     1.31648     0.00000
    11.72847     1.45130    -0.00000
    11.72847     1.44596    -0.00000
    11.72847     1.47224     0.00000
    11.72847     1.47464    -0.00000
    11.72847     1.47113     0.00000
    45.06019     1.38744     0.00000
    45.06019     1.38573     0.00000
    45.06019     1.40333    -0.00000
    45.06019     1.40607     0.00000
    45.06019     1.40680    -0.00000
    38.46927     1.14792     0.00000
    38.46927     1.14761     0.00000
    38.46927     1.15452    -0.00000
    38.46927     1.15466     0.00000
    38.46927     1.15533    -0.00000
    31.99144     0.86190     0.00000
    31.99144     0.86132    -0.00000
    31.99144     0.86256     0.00000
    31.99144     0.86039    -0.00000
    31.99144     0.86080     0.00000
    25.71231     0.69383    -0.00000
    25.71231     0.69263     0.00000
    25.71231     0.69263     0.00000
    25.71231     0.68922    -0.00000
    25.71231     0.68952     0.00000
    19.82164     0.71869    -0.00000
    19.82164     0.71665    -0.00000
    19.82164     0.71694     0.00000
    19.82164     0.71236    -0.00000
    19.82164     0.71261     0.00000
    14.79105     0.96087     0.00000
    14.79105     0.95710     0.00000
    14.79105     0.96022    -0.00000
    14.79105     0.95361    -0.00000
    14.79105     0.95373     0.00000
    11.77949     1.31187     0.00000
    11.77949     1.30739     0.00000
    11.77949     1.32188    -0.00000
    11.77949     1.31692     0.00000
    11.77949     1.31648    -0.00000
    50.97686     1.21780    -0.00000
    50.97686     1.21772    -0.00000
    50.97686     1.22384     0.00000
    50.97686     1.22374    -0.00000
    50.97686     1.22445     0.00000
    44.37662     1.26325    -0.00000
    44.37662     1.26598    -0.00000
    44.37662     1.27179     0.00000
    44.37662     1.27707    -0.00000
    44.37662     1.27973     0.00000
    37.86862     1.07592    -0.00000
    37.86862     1.07801     0.00000
    37.86862     1.07983     0.00000
    37.86862     1.08229     0.00000
    37.86862     1.08347    -0.00000
    31.51006     0.83782     0.00000
    31.51006     0.83813    -0.00000
    31.51006     0.83813    -0.00000
    31.51006     0.83706     0.00000
    31.51006     0.83757    -0.00000
    25.41336     0.69075     0.00000
    25.41336     0.68967     0.00000
    25.41336     0.68954    -0.00000
    25.41336     0.68628     0.00000
    25.41336     0.68659    -0.00000
    19.82164     0.71869     0.00000
    19.82164     0.71665    -0.00000
    19.82164     0.71694     0.00000
    19.82164     0.71236    -0.00000
    19.82164     0.71261    -0.00000
    15.29900     0.93980    -0.00000
    15.29900     0.93716    -0.00000
    15.29900     0.93918    -0.00000
    15.29900     0.93398    -0.00000
    15.29900     0.93419     0.00000
    57.10484     0.89521     0.00000
    57.10484     0.89463     0.00000
    57.10484     0.89463    -0.00000
    57.10484     0.89205     0.00000
    57.10484     0.89239    -0.00000
    50.52512     1.11653    -0.00000
    50.52512     1.11955    -0.00000
    50.52512     1.11955    -0.00000
    50.52512     1.12286     0.00000
    50.52512     1.12402    -0.00000
    44.03086     1.17593     0.00000
    44.03086     1.18072     0.00000
    44.03086     1.18072    -0.00000
    44.03086     1.18728     0.00000
    44.03086     1.18990    -0.00000
    37.66628     1.04564    -0.00000
    37.66628     1.04858     0.00000
    37.66628     1.04858     0.00000
    37.66628     1.05186    -0.00000
    37.66628     1.05314     0.00000
    31.51006     0.83782    -0.00000
    31.51006     0.83813    -0.00000
    31.51006     0.83813     0.00000
    31.51006     0.83706    -0.00000
    31.51006     0.83757     0.00000
    25.71231     0.69383    -0.00000
    25.71231     0.69263    -0.00000
    25.71231     0.69263     0.00000
    25.71231     0.68922    -0.00000
    25.71231     0.68952     0.00000
    20.57828     0.71063     0.00000
    20.57828     0.70900     0.00000
    20.57828     0.70900    -0.00000
    20.57828     0.70495    -0.00000
    20.57828     0.70520    -0.00000
